time,Fz,Cz,Pz,Oz,P3,P4,PO7,PO8
-0.19921875,0.024448841173807523,0.01987426756500099,0.03130706716092391,0.0503823400777037,0.042787245746467306,0.0393290342515229,0.0716990768978576,0.07297277448969908
-0.1953125,0.026341911762983727,0.021413130824043947,0.03373116896909778,0.05428343996527474,0.04610025783335914,0.04237427475572986,0.0772507249280352,0.07862304585160018
-0.19140625,0.025736291320299642,0.020920827736858882,0.03295566486372081,0.053035421387903625,0.045040376761562584,0.04140006026887022,0.07547467362201132,0.07681544644810856
-0.1875,0.02244618002578136,0.018246321786818953,0.028742633162437414,0.046255404839712355,0.03928244396433911,0.0361075009891465,0.06582603617744098,0.06699540477939081
-0.18359375,0.01730260557053498,0.014065150821807038,0.0221562181934587,0.03565591200072049,0.03028081607681088,0.027833415572331432,0.05074190667642142,0.05164331184914772
-0.1796875,0.012139398819499547,0.00986802106694995,0.015544662446131952,0.025015964411068126,0.02124482989529497,0.019527750083625506,0.03560020189752322,0.036232624012200176
-0.17578125,0.009389105493085026,0.0076323294351254845,0.012022876028083829,0.01934836646455551,0.01643161695596973,0.015103557515772081,0.027534646562799026,0.028023785958453118
-0.171875,0.01136910920962464,0.00924185883377504,0.014558295902133978,0.023428608386666383,0.019896765124371996,0.018288641712160825,0.03334123732656735,0.03393352798752858
-0.16796875,0.01947211814012917,0.015828730326461482,0.024934307063517736,0.04012668242125983,0.03407761894891337,0.03132334924771385,0.05710425199367819,0.05811868319938185
-0.1640625,0.0335385941241384,0.027263256541232295,0.04294661692938462,0.06911381689178597,0.05869497243793376,0.053951040968058805,0.0983558336997703,0.1001030724978591
-0.16015625,0.05164927330270075,0.04198528458232431,0.06613758074536236,0.10643495329532016,0.0903899746163006,0.08308434473747184,0.15146750342864834,0.15415825771469827
-0.15625,0.07044239680453757,0.05726206708800419,0.09020243396662408,0.1451624171977528,0.12327930676292453,0.11331545124448894,0.20658053756505979,0.21025033447585884
-0.15234375,0.08588128252995375,0.06981221645219193,0.10997213450991694,0.17697770715585648,0.15029847588721168,0.138150838324691,0.25185687491102726,0.25633099198785203
-0.1484375,0.09424274338698524,0.0766091758919174,0.12067908983226516,0.19420838270889362,0.16493163457198534,0.15160129862579197,0.27637781840894604,0.2812875550262106
-0.14453125,0.09302589631943192,0.07562001513861105,0.11912090513988005,0.19170079212926794,0.16280206693863875,0.1496438528647559,0.2728092738379928,0.27765560162151814
-0.140625,0.0815180030144802,0.06626533632925202,0.10438489539410511,0.16798618673874444,0.14266241521454504,0.13113195507230557,0.23906105184323678,0.24330785208803718
-0.13671875,0.06087869053317263,0.0494878058532322,0.07795598122584124,0.12545424965537677,0.10654212445615485,0.09793102861976877,0.17853385259058996,0.18170541693507403
-0.1328125,0.03376211665795381,0.027444956529620868,0.04323284130691718,0.06957444043109717,0.05908615463567912,0.054310611119490204,0.09901134490064578,0.10077022949417369
-0.12890625,0.0036286476046143434,0.002949698929555211,0.004646532048013796,0.00747764516972893,0.006350396652976542,0.005837136107800234,0.010641432623970104,0.010830471630640659
-0.125,-0.026036726552547407,-0.021165048380566986,-0.03334037756985708,-0.053654535037139794,-0.045566160622456664,-0.04188334656873849,-0.07635573240349913,-0.07771215848606516
-0.12109375,-0.0523909449157145,-0.042588183646330435,-0.06708730637683402,-0.10796333782536749,-0.09168795855885037,-0.08427742415051398,-0.15364254579708359,-0.15637193939710414
-0.1171875,-0.07364036491708248,-0.059861669399197126,-0.09429747649392084,-0.15175255896338058,-0.12887598188626725,-0.11845978775681942,-0.21595896271264792,-0.219795367684128
-0.11328125,-0.08913415427969085,-0.07245645150533164,-0.11413748524091716,-0.1836809957467267,-0.1559912448101386,-0.14338350240450382,-0.26139630904253863,-0.26603987635098747
-0.109375,-0.09917452103991309,-0.08061818590476832,-0.12699430840257264,-0.2043714317778722,-0.173562611394118,-0.15953469301166479,-0.290840858951924,-0.29600749940073
-0.10546875,-0.10463958233231097,-0.08506068382985177,-0.133992386963655,-0.21563342045283207,-0.1831268576779621,-0.16832592564242077,-0.30686777563460055,-0.3123191163467709
-0.1015625,-0.10654850512992198,-0.08661243811047825,-0.1364367818723622,-0.219567183989966,-0.18646761645868537,-0.17139666397270048,-0.31246591447597893,-0.31801670274944627
-0.09765625,-0.10569716124564366,-0.08592038369670263,-0.1353466387854496,-0.21781279713195545,-0.18497770781777945,-0.17002717811465118,-0.30996926625448395,-0.31547571666123986
-0.09375,-0.1024571858465606,-0.08328663625434274,-0.13119780817305582,-0.21113609705025738,-0.179307519942995,-0.16481526188272255,-0.300467632996515,-0.3058053152926732
-0.08984375,-0.09677178525180352,-0.07866501761100153,-0.1239175588807484,-0.19942004314543738,-0.16935764790559915,-0.15566958211366,-0.28379454874993826,-0.28883601999041275
-0.0859375,-0.08831654696450641,-0.071791816935729,-0.11309051473062937,-0.1819961141791282,-0.1545603538488649,-0.14206825937890244,-0.25899856836986146,-0.2635995315358741
-0.08203125,-0.07674551483205505,-0.06238582272999338,-0.09827365943237965,-0.15815140841368702,-0.13431022694021522,-0.12345481081865728,-0.22506516472731164,-0.22906334606886958
-0.078125,-0.06192869506094212,-0.0503413488672777,-0.07930052703386536,-0.12761802281602286,-0.10837971586852291,-0.09962009528408089,-0.1816131316445535,-0.18483939356883639
-0.07421875,-0.044109235375344724,-0.03585604702038836,-0.056482463151041884,-0.0908970037016843,-0.07719435757280735,-0.07095524523492713,-0.12935547033521289,-0.1316534081752252
-0.0703125,-0.023953022676437286,-0.01947122285628211,-0.03067216525209915,-0.04936059738724907,-0.04191952740484339,-0.038531450030632186,-0.07024502934882548,-0.07149289871222209
-0.06640625,-0.0025068989106813433,-0.0020378383425168067,-0.0032101175051479913,-0.005166029382053239,-0.004387255003734936,-0.004032662204167536,-0.007351773412267448,-0.007482373831635414
-0.0625,0.01889612732952628,0.015360512861661846,0.024196744163873518,0.03893972433388626,0.033069596838686266,0.030396797967569,0.0554150965115241,0.05639951794478293
-0.05859375,0.038751188924379676,0.03150053373701667,0.04962141630926453,0.0798555461756223,0.06781739614325488,0.06233615579276375,0.11364237906263952,0.11566118018890847
-0.0546875,0.055504937535033605,0.0451195241168989,0.07107481536650084,0.11438041269684618,0.09713766502272847,0.0892866651724944,0.16277469683245727,0.16566630733905185
-0.05078125,0.06769874971723766,0.0550317800218636,0.08668915540965827,0.13950851496247196,0.11847772896089737,0.10890195056845187,0.19853447952300485,0.2020613436570784
-0.046875,0.07414556790763527,0.06027234178418439,0.09494439012769362,0.15279363196896156,0.12976012442322826,0.11927247101084504,0.2174405153709813,0.22130323884539393
-0.04296875,0.07413451186266684,0.060263353418577026,0.09493022901096992,0.15277083775799838,0.12974076923910616,0.1192546790207416,0.2174080862005212,0.22127024124074524
-0.0390625,0.06762584092712132,0.05497251365227385,0.08659579719960675,0.13935827780642285,0.11835013680183692,0.1087846683844873,0.19832066300295992,0.2018437328388245
-0.03515625,0.055374027141397164,0.04501310613136411,0.07090718412428032,0.1141106480417875,0.09690856472843734,0.08907608162189717,0.16239079059232608,0.16527557988865738
-0.03125,0.038916464717431154,0.031634886710207866,0.04983305501582436,0.08019613773058154,0.06810663677470075,0.06260202667363046,0.11412707578983827,0.11615448158863728
-0.02734375,0.020395798827621547,0.016579583927978092,0.026117094265032392,0.04203013759251917,0.03569412854176335,0.03280920779502594,0.05981306117064378,0.06087560677769943
-0.0234375,0.0022347479422535343,0.0018166088633364552,0.0028616247149670926,0.004605201109342261,0.003910971102527583,0.0035948728438484068,0.006553658504770965,0.006670081376114467
-0.01953125,-0.013265797349504282,-0.010783661075208784,-0.016987030448945006,-0.027337160091178703,-0.02321610814703945,-0.02133970156137366,-0.03890349731250353,-0.03959459604629956
-0.015625,-0.024305567336568856,-0.019757802505182553,-0.03112360147383697,-0.05008709180742699,-0.0425365058731586,-0.039098559057038074,-0.07127890455649322,-0.07254514144960922
-0.01171875,-0.029846862759086434,-0.02426227929674951,-0.038219308606812774,-0.06150617792854973,-0.05223417787192375,-0.04801243136398625,-0.08752940772183138,-0.08908432391763199
-0.0078125,-0.02970453039097265,-0.024146576294015176,-0.03803704728966295,-0.06121287299265532,-0.05198508290504833,-0.047783469625528596,-0.08711199228628175,-0.08865949752134838
-0.00390625,-0.024461895620220275,-0.019884881297116408,-0.03132378623149634,-0.05040924122567958,-0.04281009324813567,-0.03935003434207829,-0.07173736094046035,-0.07301174065332816
0.0,-0.01525565274107521,-0.012401199178668776,-0.019535066897446995,-0.03143770754832076,-0.026698499411281773,-0.02454063441348353,-0.044738978743907865,-0.04553374566285129
0.00390625,-0.0034941942672617188,-0.0028404028018513827,-0.0044743626581578155,-0.007200573914900588,-0.006115093764691437,-0.005620850895837748,-0.010247132031793171,-0.010429166863445971
0.0078125,0.009427814973150817,0.0076637958201786205,0.012072443489330453,0.01942813554478562,0.016499360100397098,0.015165825928420418,0.027648166422977738,0.02813932198364455
0.01171875,0.022369302854485795,0.018183829553208852,0.02864419279546837,0.04609698578406096,0.039147902697322934,0.035983834578701135,0.06560058807281166,0.0667659492137318
0.015625,0.03460018049850078,0.028126212470169776,0.04430599531701773,0.07130145718292624,0.06055282852912569,0.055658741615616236,0.10146906248564846,0.10327160993028883
0.01953125,0.04584811108543363,0.037269565211772715,0.05870911934380274,0.09448034887782342,0.08023751973951221,0.07375244592822128,0.1344549218629254,0.13684345390174713
0.0234375,0.056219921162892206,0.04570072675846859,0.07199035678695509,0.11585380121914568,0.09838893788582936,0.09043680648801455,0.16487146581312118,0.1678003229699243
0.02734375,0.06601074176160182,0.05365960831227312,0.0845276417749119,0.13602999615613953,0.11552359069355589,0.10618657597660786,0.1935841993372378,0.19702312670233368
0.03125,0.07545464342229025,0.061336486112395505,0.09662068123361678,0.15549127851954836,0.13205109894443012,0.12137827809510782,0.22127953513972898,0.22521047071677458
0.03515625,0.08450596311604386,0.06869422719546492,0.10821101881219874,0.17414356534573017,0.1478915692132432,0.13593846404091892,0.24782357854746806,0.2522260444948188
0.0390625,0.09274548773419156,0.07539206592355185,0.11876183236836368,0.1911229503548384,0.16231132349275867,0.14919277191438596,0.2719869485190429,0.27681866754392104
0.04296875,0.0994649269614456,0.0808542495178699,0.12736616383790533,0.20496986508078407,0.17407083419129776,0.1600018322278629,0.29169248705329665,0.2968742478515196
0.046875,0.10390657934067349,0.08446483690249806,0.13305377422057063,0.2141229060725891,0.18184405803367554,0.1671467941832816,0.3047181564852508,0.3101313268416561
0.05078125,0.1055568858987499,0.08580635579846785,0.13516699937099474,0.2175237199253388,0.18473220109171962,0.16980150974177377,0.30955786201047886,0.31505700803791115
0.0546875,0.10435492470151075,0.08482928848252413,0.13362787854021008,0.21504681058104325,0.1826286961659207,0.16786800927093282,0.3060329731852107,0.31146950618676783
0.05859375,0.10070572642462139,0.08186288624756344,0.1289550226601932,0.20752680995883566,0.1762423238460542,0.1619978178268866,0.2953312616682524,0.30057768185542955
0.0625,0.09527614253102001,0.07744922214669714,0.12200237620163534,0.1963379361313855,0.1667401647864608,0.15326365598866687,0.2794083968638006,0.2843719357770169
0.06640625,0.08866079781455483,0.07207166419220812,0.11353134254932229,0.1827055342573658,0.1551628372453706,0.14262204217629915,0.26000813591053884,0.2646270331752021
0.0703125,0.08108292348651958,0.06591166368252743,0.10382777304585034,0.16708962391476234,0.1419009976189045,0.1304320846884366,0.23778513025263237,0.24200926418416202
0.07421875,0.07229909471107021,0.058771359334741646,0.09257995259304153,0.1489885477212738,0.12652866132611962,0.11630217500169238,0.21202551181431772,0.21579204201316315
0.078125,0.061798210992947133,0.050235279047683434,0.07913344290955138,0.1273491250231018,0.10815136164410433,0.09941019385451,0.18123046174878255,0.18444993088451156
0.08203125,0.049253316092290333,0.040037630100187016,0.06306952826662382,0.10149754814392509,0.08619687719146896,0.07923014777588833,0.14444108842326386,0.14700701456149545
0.0859375,0.03505745738152655,0.028497929349668993,0.044891542927416594,0.07224377895909129,0.06135309149613022,0.0563943274300982,0.10281007689627586,0.10463644883884626
0.08984375,0.02071169724615629,0.016836374072681792,0.026521604468143778,0.04268111197802682,0.03624697342274885,0.03331736664335949,0.060739466789527796,0.061818468566343654
0.09375,0.008865689515857866,0.007206848895435769,0.011352634388117622,0.018269750157173803,0.015515601248239363,0.014261576808394238,0.02599966819616384,0.026461540514333137
0.09765625,0.0029296935988298856,0.0023815247551794982,0.003751511989946721,0.006037292887839385,0.005127176461172667,0.004712780388160809,0.008591667821633564,0.008744294177631673
0.1015625,0.006331990931585096,0.005147225312640558,0.008108199445189257,0.01304849295280519,0.011081444206695323,0.010185803311912878,0.018569302540072385,0.01889917555786269
0.10546875,0.02162503953684336,0.0175788237299912,0.027691152482134385,0.04456326152535439,0.0378453890448327,0.03478659493794112,0.06341795000253114,0.06454453682636085
0.109375,0.04969914613184301,0.040400042422561455,0.06364042093309763,0.10241627279583554,0.08697710995875241,0.07994731987537307,0.1457485296896266,0.14833769057531754
0.11328125,0.08933010064993141,0.07261572676497963,0.11438838498634141,0.18408478297260444,0.15633415273441642,0.143698699162087,0.26197093916380254,0.2666247098659369
0.1171875,0.13718718605559843,0.11151838208434128,0.1756700385158183,0.282705087784052,0.24008753030102525,0.22068284977194708,0.4023174255962658,0.4094644054930541
0.12109375,0.18829996406566352,0.15306754619359708,0.241120631017111,0.3880344650042389,0.3295386079571472,0.3029041693025647,0.5522115884559753,0.5620213414658792
0.125,0.23686612848905497,0.19254659378020733,0.3033102586869063,0.48811597253006767,0.4145329057791969,0.38102893995528575,0.6946375492589141,0.7069774028423126
0.12890625,0.2772071354684158,0.22533947685587918,0.35496742611940135,0.5712476536245958,0.485132602534577,0.44592249537345197,0.8129421757985256,0.8273837011074647
0.1328125,0.30465446343441727,0.24765120087977266,0.390114109904971,0.6278090722844354,0.5331673946784576,0.49007502411768655,0.8934347306421841,0.9093061521525669
0.13671875,0.31618017715118185,0.2570203605500865,0.4048729635997006,0.6515604127343977,0.5533382818612154,0.5086155852040974,0.9272352485822921,0.9437071071261016
0.140625,0.3106586348167184,0.2525319473534182,0.39780255178811785,0.6401820655810297,0.5436751280285534,0.499733459946583,0.9110426617553458,0.9272268925997196
0.14453125,0.2887462358103221,0.23471952204090485,0.3697434181049175,0.5950266199761245,0.5053268523624865,0.46448462853732053,0.8467819725410664,0.8618246170044586
0.1484375,0.25246418999813613,0.20522614363471803,0.3232837855193793,0.5202592774367076,0.44183067871017556,0.40612039242660103,0.7403806989714212,0.7535331860708538
0.15234375,0.20463714633933705,0.1663479025637571,0.26204060077361646,0.4217008893192542,0.35812985288430355,0.32918455872277264,0.6001222914164828,0.6107831609369896
0.15625,0.1483570883920038,0.12059830112320924,0.1899732353649597,0.3057231765524193,0.2596356694084534,0.23865101184128434,0.4350744404746365,0.44280332645030285
0.16015625,0.08660260419901533,0.07039857052859588,0.11089579743384093,0.1784641625590666,0.1515608545332725,0.13931118303389667,0.25397224590051337,0.25848393647720513
0.1640625,0.022063852966880404,0.017935532170554325,0.028253060335714508,0.04546753729073316,0.038613343633642216,0.03549248361878199,0.06470482105669362,0.06585427314576009
0.16796875,-0.042863074867227624,-0.034843051111010936,-0.054886740485926566,-0.08832900988409165,-0.07501348875393887,-0.06895064075251867,-0.1257009643040874,-0.12793397274890594
0.171875,-0.10600954425399323,-0.08617431745960857,-0.13574664592397312,-0.21845653463969938,-0.18552439939867327,-0.17052968814823544,-0.31088535479284474,-0.31640806241739483
0.17578125,-0.16540371916562435,-0.1344553766102763,-0.21180167664169858,-0.3408516136005346,-0.28946851671207696,-0.26607267500367016,-0.48506569783057785,-0.4936826485391066
0.1796875,-0.21934276617230353,-0.17830198828505672,-0.2808713475133118,-0.45200513909549045,-0.3838657391952438,-0.3528404022290488,-0.6432481995943817,-0.6546752047142945
0.18359375,-0.2665622673703183,-0.21668634531124553,-0.3413365448068362,-0.5493115509125346,-0.4665033088713244,-0.42879889861069387,-0.781724907028547,-0.7956118679430801
0.1875,-0.3064277223074896,-0.24909266471695446,-0.39238480553649424,-0.6314633083093213,-0.5362707611311635,-0.4929275405629596,-0.8986349939732463,-0.9145988428826968
0.19140625,-0.33904007068485953,-0.27560298576645437,-0.4341453347933566,-0.6986683729337528,-0.5933447368988709,-0.5453885592032748,-0.9942745009539067,-1.0119373428096878
0.1953125,-0.3651682334293582,-0.2968423586935387,-0.4676028027006396,-0.7525113119299931,-0.6390708904291387,-0.5874189810128883,-1.0708984063967364,-1.0899224207605585
0.19921875,-0.3859896082758496,-0.3137678845632763,-0.49426489567849785,-0.7954184866321157,-0.6755098524990899,-0.6209128287082422,-1.1319594932501786,-1.1520681937327026
0.203125,-0.4027026250241761,-0.32735377430981316,-0.5156661018190789,-0.8298594025291095,-0.7047588042041752,-0.6477977763097442,-1.1809723901023972,-1.2019517043881933
0.20703125,-0.41613932921791275,-0.33827635093075514,-0.532871979430638,-0.8575487413509109,-0.7282740170921898,-0.6694124294881476,-1.2203770438645734,-1.2420564416970592
0.2109375,-0.4265201880571112,-0.3467148701474798,-0.546164812931238,-0.8789408525444742,-0.7464412874469417,-0.6861113206468872,-1.2508201052696677,-1.2730403113891953
0.21484375,-0.4334503955760738,-0.35234839401709905,-0.5550390369535307,-0.8932221362556447,-0.758569683512178,-0.6972594519538688,-1.2711437875623233,-1.2937250630784547
0.21875,-0.4361736785085668,-0.35456210412121436,-0.5585262101703847,-0.898834002782678,-0.7633355494363059,-0.7016401468717959,-1.2791300605385914,-1.3018532172281994
0.22265625,-0.4340046757533855,-0.35279896337669925,-0.5557487838814268,-0.8943643479142338,-0.7595396596116188,-0.6981510978221195,-1.272769281968067,-1.2953794339409797
0.2265625,-0.4267921838163602,-0.34693599104684836,-0.5465130925585981,-0.8795013286544417,-0.7469172942364821,-0.6865488444418588,-1.2516178458099603,-1.2738521490973653
0.23046875,-0.4152428800807684,-0.337547646722669,-0.5317240834301629,-0.8557013870813535,-0.7267051387316315,-0.6679703687950678,-1.2177481494290987,-1.239380821971281
0.234375,-0.40097535247696214,-0.32594968502053234,-0.5134543243912049,-0.8262999813268834,-0.7017359848759952,-0.6450192699958279,-1.1759069593608729,-1.1967963473580312
0.23828125,-0.3862598703108233,-0.31398758437717333,-0.49461095841252245,-0.7959754384501139,-0.6759827897440118,-0.6213475671756896,-1.1327521178827737,-1.1528749155331752
0.2421875,-0.3735094651347026,-0.30362289749064075,-0.4782838800565514,-0.7697003070461506,-0.6536686782965262,-0.6008369268784008,-1.0953600622087833,-1.1148185876663774
0.24609375,-0.36468441066972446,-0.29644905907844077,-0.46698326627847564,-0.7515143352065934,-0.6382242077052069,-0.5866407377652649,-1.0694795946619706,-1.0884783705478185
0.25,-0.36081854659641976,-0.29330652751013986,-0.4620329718818539,-0.7435478437400889,-0.6314586471489747,-0.5804219540550548,-1.058142402143858,-1.0769398386401008
0.25390625,-0.3618492883106228,-0.29414439950414817,-0.4633528476460924,-0.7456719117726607,-0.6332625162031036,-0.5820800765832246,-1.061165221472038,-1.0800162044688477
0.2578125,-0.36683135817838775,-0.2981942941460147,-0.4697324698099692,-0.7559385721833678,-0.6419815008484875,-0.5900943165215722,-1.0757756854218314,-1.0948863291559974
0.26171875,-0.37446523037942825,-0.30439980491792085,-0.4795077188646246,-0.7716698746662587,-0.6553413527399243,-0.6023743708283291,-1.098162897505972,-1.1176712177984882
0.265625,-0.3837305655451928,-0.3119315294952685,-0.49137213409267133,-0.7907631811576721,-0.6715563358739018,-0.6172788289404707,-1.125334620155627,-1.1453255410742713
0.26953125,-0.39434482346223376,-0.3205597920441505,-0.5049638502896414,-0.8126363013616356,-0.6901320830365876,-0.6343532277242048,-1.156462190010643,-1.1770061973948032
0.2734375,-0.4068151895353367,-0.330696849459855,-0.5209323035160196,-0.8383342446904862,-0.7119560905266553,-0.6544133839270216,-1.1930329719689325,-1.214226585943834
0.27734375,-0.422014409195981,-0.34305216445318365,-0.5403950922300282,-0.8696557074472366,-0.7385558546957327,-0.6788632163079455,-1.237606397808122,-1.2595919542945921
0.28125,-0.4404341211738938,-0.3580254031021468,-0.5639818141389696,-0.9076136393559864,-0.7707917006882781,-0.7084936441970058,-1.2916243576910347,-1.3145694310878753
0.28515625,-0.4614478825715196,-0.3751073052171705,-0.5908901812290424,-0.9509171832178254,-0.8075672326413041,-0.7422968906212191,-1.3532496723200893,-1.3772894362773513
0.2890625,-0.48295976284862263,-0.3925941598481586,-0.6184364451655711,-0.9952473192242905,-0.8452146289528173,-0.7769014587211132,-1.416335749127029,-1.4414962379305507
0.29296875,-0.501679835451796,-0.40781154098112893,-0.6424077128031058,-1.0338242191210156,-0.8779761060395685,-0.8070150556704903,-1.4712345546286087,-1.4973702491261065
0.296875,-0.5140000212122686,-0.4178265271548298,-0.6581839215868968,-1.059212763721007,-0.8995373264042428,-0.8268336273431487,-1.5073649137775647,-1.5341424841608386
0.30078125,-0.5171630164113594,-0.42039772552016075,-0.6622341857109859,-1.065730884874938,-0.905072852219746,-0.8319217386087985,-1.5166408502409467,-1.543583266538917
0.3046875,-0.5102537556922471,-0.41478125467619975,-0.6533867917823954,-1.0514927453186829,-0.8929811201596749,-0.8208073154492013,-1.4963786725274986,-1.5229610426104045
0.30859375,-0.49458424200565787,-0.4020435824259039,-0.6333216902021377,-1.0192020454269368,-0.865558263285493,-0.79560089716324,-1.4504258842862328,-1.4761919828742975
0.3125,-0.473276884349616,-0.3847230232167931,-0.6060374175831384,-0.9752935739015811,-0.8282689236693841,-0.7613253956151311,-1.3879396192351123,-1.4125956795396633
0.31640625,-0.45017796423962864,-0.3659460787730495,-0.5764588877354981,-0.9276930086343782,-0.787844101068913,-0.7241678190439416,-1.3201993169786874,-1.343652002105955
0.3203125,-0.42850646764236444,-0.34832950746022107,-0.5487082717081648,-0.8830340334498032,-0.7499174330405367,-0.6893065460644721,-1.2566451914608479,-1.278968852602702
0.32421875,-0.40975464798975736,-0.3330862909933785,-0.5246963041827257,-0.8443916499345505,-0.7171003630901396,-0.6591418468815391,-1.201653276439174,-1.2230000265844865
0.328125,-0.3932535719286534,-0.3196727220711182,-0.5035664685237862,-0.8103875188680831,-0.688222314693121,-0.6325977892629453,-1.1532619055287796,-1.1737490694940789
0.33203125,-0.376559512460517,-0.3061022368910926,-0.4821894776796398,-0.7759855975564278,-0.6590064458578127,-0.6057433097339526,-1.104304601540207,-1.1239220611969358
0.3359375,-0.3565054953469371,-0.2898004822782241,-0.4565100653053378,-0.7346598067670129,-0.6239104664018669,-0.5734839305659989,-1.045493945639464,-1.0640666232575313
0.33984375,-0.3305252391783142,-0.2686813616037398,-0.423241999669699,-0.6811216621827043,-0.5784431778010912,-0.5316913984643179,-0.9693037554825423,-0.9865229912975337
0.34375,-0.29777083909721114,-0.24205553472711472,-0.3812995430507726,-0.6136237971077207,-0.5211205689192866,-0.47900181243676343,-0.8732476430850511,-0.8887604963092599
0.34765625,-0.2596351862393931,-0.21105539360632974,-0.3324663566672825,-0.5350367473511142,-0.4543804266177176,-0.41765585478970024,-0.7614104902131658,-0.7749365522613516
0.3515625,-0.21950667417058867,-0.17843524346972117,-0.2810812418374553,-0.4523429311120708,-0.3841526279302343,-0.35310409884914407,-0.6437289243876876,-0.6551644560204295
0.35546875,-0.18184509542606975,-0.14782044388539362,-0.23285508632397978,-0.37473276393029664,-0.3182421153269388,-0.2925206956660986,-0.5332819341674622,-0.5427554583548044
0.359375,-0.1508857252474627,-0.1226538017817802,-0.19321119282267318,-0.31093398433768016,-0.26406095798847673,-0.24271864162983547,-0.44248997710383264,-0.4503505692809995
0.36328125,-0.12938379256866028,-0.10517505444340713,-0.16567767602282402,-0.2666244256488426,-0.22643101260655385,-0.2081300891632054,-0.37943303254905913,-0.3861734683141549
0.3671875,-0.11778381292515405,-0.09574552706226314,-0.1508237517100497,-0.242720062715307,-0.20613020978998975,-0.18947007163205853,-0.3454147474712954,-0.3515508808504819
0.37109375,-0.1140530656584815,-0.09271283119005602,-0.14604647446958552,-0.23503201873609214,-0.1996011462779279,-0.1834686997881363,-0.3344739241128991,-0.3404156814212911
0.375,-0.11421093404351268,-0.09284116231356165,-0.14624863808876398,-0.23535734783308726,-0.19987743371530087,-0.18372264776189695,-0.33493688533781096,-0.3408868565202283
0.37890625,-0.11338161698404292,-0.09216701357672719,-0.14518667512675165,-0.23364833623418235,-0.19842605070152786,-0.18238857535379793,-0.33250481124014186,-0.338411581424225
0.3828125,-0.10705798558774404,-0.08702659215487074,-0.1370891880014824,-0.22061708193632512,-0.1873592481160813,-0.1722162323858356,-0.31396001531902584,-0.3195373778908106
0.38671875,-0.09222470254144355,-0.07496873166701334,-0.11809496669457076,-0.19004976081760105,-0.1613999245364539,-0.14835502781807008,-0.27045967954109074,-0.27526428425517224
0.390625,-0.06805142049870483,-0.055318459146747045,-0.08714075505622532,-0.1402352722834621,-0.11909492769746066,-0.10946926209953745,-0.19956871710746782,-0.20311395587668812
0.39453125,-0.03600411346837973,-0.029267459566995058,-0.0461037501509054,-0.074194581145548,-0.06300981425511054,-0.057917144857810854,-0.10558625973544622,-0.10746195044930573
0.3984375,0.0006130512208990524,0.0004983444767958645,0.0007850202710102394,0.0012633299961706257,0.0010728841148832657,0.000986169923500313,0.0017978440958188457,0.00182978199259054
0.40234375,0.03752821342573043,0.03050638852641896,0.04805538011964927,0.07733532925158215,0.06567709931459831,0.06036884769855533,0.11005585776047155,0.1120109445196249
0.40625,0.07053803585677088,0.05733981112143738,0.0903249031125597,0.14535950754179794,0.12344668220976018,0.11346929795763572,0.20686101720457373,0.2105358021253778
0.41015625,0.09644447374057563,0.0783989477781688,0.12349843814263295,0.19874555334808974,0.16878482256288407,0.15514305573560705,0.2828346623573452,0.2878590805721615
0.4140625,0.11367618668600699,0.09240646647867834,0.14556387384345726,0.23425536710419692,0.19894157787803124,0.18286243630427634,0.33336866067656956,0.3392907785837451
0.41796875,0.12247767244843999,0.09956112734244016,0.15683430376611796,0.2523928230857564,0.21434480856896698,0.19702072506788681,0.359180035047757,0.3655607088148827
0.421875,0.124669142564926,0.10134255035154638,0.15964050703587418,0.2569088337622816,0.2181800340395057,0.20054598337537755,0.36560678040586936,0.37210159575806756
0.42578125,0.12308822761042393,0.10005744144336859,0.1576161139382748,0.2536509953188215,0.21541332273500302,0.19800287986981857,0.360970574320163,0.3673830235584319
0.4296875,0.12089130052572727,0.09827157754216387,0.1548029331388534,0.2491237296453619,0.2115685475700957,0.19446885346496856,0.3545278275396413,0.3608258509757434
0.43359375,0.12090099232864304,0.09827945746110345,0.15481533921501978,0.24914371010709147,0.21158550111977092,0.19448444277259114,0.3545562492490717,0.3608547558542341
0.4375,0.12514043135070096,0.10172566078381351,0.16024398519220995,0.2578800035735185,0.21900483204717602,0.20130410405272414,0.36698887129205104,0.37350827142290655
0.44140625,0.13461591663599393,0.10942820694026523,0.172377482954289,0.27740637165152293,0.23558760631203768,0.21654660997683095,0.3947768334455759,0.40178986182581866
0.4453125,0.1493292103305066,0.12138852412135748,0.19121804939459253,0.3077264523199119,0.26133696451324795,0.2402148027158546,0.4379253084607626,0.44570484192263393
0.44921875,0.16844650474467926,0.13692883271687606,0.21569800878751266,0.3471219542916515,0.29479360819095746,0.27096737653664604,0.49398903456676635,0.5027645215704979
0.453125,0.19053557309689495,0.15488485871628654,0.2439833508560696,0.39264142515094136,0.33345108363391773,0.3065004250402126,0.5587677378571243,0.5686940198756929
0.45703125,0.21380195391884627,0.1737979005156376,0.27377626565794344,0.4405870299706294,0.3741689340586163,0.3439272973082552,0.6269991104090877,0.6381374646480253
0.4609375,0.23629328893548518,0.1920809467037543,0.302576722788217,0.48693550525058527,0.41353041524416767,0.3801074512921332,0.6929575988579018,0.7052676664898172
0.46484375,0.2560782661475969,0.20816399626255588,0.32791166404422256,0.5277069590192696,0.4481555606616894,0.41193410993400903,0.7509793817916943,0.7643201911378128
0.46875,0.27142834824189777,0.22064195093207672,0.34756763511722966,0.5593392415903509,0.47501930566795636,0.43662663529175916,0.7959952768032963,0.8101357593659486
0.47265625,0.28102667215534893,0.2284443496591848,0.35985840440844186,0.5791187049908331,0.4918170475320949,0.45206672893982613,0.8241434557021421,0.8387839898205129
0.4765625,0.284200780242827,0.23102455770640518,0.36392290780895564,0.5856596771991462,0.4973719569534296,0.4571726606172888,0.8334519066011126,0.8482577413815306
0.48046875,0.2811337935781921,0.22853143377687957,0.3599955959998624,0.5793394848296884,0.4920045171274978,0.4522390497641027,0.8244576292781858,0.8391036772081861
0.484375,0.27297383553559484,0.22189824733231944,0.3495466387448687,0.5625240078188654,0.47772397238077247,0.439112710637346,0.8005275162759062,0.8147485459630843
0.48828125,0.26175482048529375,0.21277841710798384,0.33518057307446725,0.5394047661866352,0.45808994286744564,0.42106555042664695,0.7676265454392706,0.781263054250303
0.4921875,0.250080319119661,0.20328830885318894,0.3202312086614256,0.5153468123353377,0.4376587128263054,0.40228565012512263,0.733389697415987,0.7464179816452088
0.49609375,0.2405988084319688,0.19558086705728783,0.3080899944052362,0.4958080239703122,0.42106537989639037,0.3870334239763906,0.7055840569591965,0.7181184287219367
0.5,0.235390942293634,0.19134742501591973,0.30142123819132394,0.48507598648939165,0.41195121980308613,0.37865592616981303,0.6903113671796746,0.7025744253041921
0.50390625,0.23545119631762645,0.19139640983212303,0.3014984031324275,0.4852001893596025,0.41205666434507293,0.3787528441989707,0.690488036525494,0.7027542210380489
0.5078125,0.2404448480319843,0.19545572627066576,0.30789286142862693,0.49549078084965004,0.42079594209099014,0.3867857856221235,0.7051325496831851,0.7176589065238659
0.51171875,0.24884229787858203,0.20228193875482248,0.31864590255281655,0.512795566010027,0.4354920974947163,0.4002941125236248,0.7297590514099284,0.742722875202162
0.515625,0.25840139983301924,0.21005244832394965,0.3308864506834652,0.532494254912308,0.4522212009305804,0.4156711383984657,0.7577922360724187,0.771254008213873
0.51953125,0.2668376453129895,0.2169101946947194,0.3416891729557392,0.549879018763022,0.46698522737642634,0.42924187937387615,0.7825324814803025,0.7964337669363886
0.5234375,0.27244800548942294,0.2214708132441956,0.348873300026753,0.5614404585685406,0.4768037626945443,0.4382668521429878,0.7989855248524691,0.8131790991683374
0.52734375,0.2744745017935202,0.22311814973363653,0.35146828736287716,0.5656165171785688,0.4803503088623984,0.44152676537123625,0.8049285042943666,0.8192276368390594
0.53125,0.27310014161230356,0.2220009491793462,0.3497083866932371,0.5627843506772479,0.477945093280141,0.4393159258597734,0.800898021680041,0.8151255883603881
0.53515625,0.26911749273494934,0.21876347489069303,0.344608565683302,0.5545771841752867,0.47097515221139474,0.4329093314936472,0.7892184044067108,0.8032384926082159
0.5390625,0.2634346856211778,0.21414396655927703,0.33733164173099794,0.5428664735518396,0.4610298276475078,0.4237678297158709,0.7725529371782613,0.7862769280109205
0.54296875,0.25663314318080666,0.2086150630020711,0.32862217835827323,0.5288503643896547,0.449126645207798,0.41282669371867087,0.7526066383434227,0.7659763241463224
0.546875,0.2487513199866953,0.20220798546688457,0.3185294019658613,0.512608096414624,0.43533287907848717,0.40014779756347707,0.7294922852452146,0.7424513341902639
0.55078125,0.23936266302371223,0.1945760175203759,0.3065071041419287,0.49326064299748396,0.41890206148309517,0.38504495591951127,0.7019589247647673,0.7144288929339382
0.5546875,0.22789245690546522,0.18525196310292813,0.29181933314248454,0.46962369992797903,0.39882831970317056,0.3665936674224213,0.6683211495328578,0.6801935796829639
0.55859375,0.21402487959676364,0.17397911733496585,0.274061704885753,0.4410464384818624,0.374559050442258,0.34428592243784806,0.6276528665694059,0.6388028168657911
0.5625,0.19802060080564843,0.16096937827114743,0.25356803234899417,0.40806602896736877,0.3465504221367155,0.31854102644501836,0.5807185061712516,0.5910346771997865
0.56640625,0.18080164920775132,0.14697222638915264,0.23151893913109234,0.3725825195033394,0.31641602049603534,0.29084219477226725,0.5302219392433472,0.5396410642788396
0.5703125,0.16375071254515206,0.13311165503182565,0.20968496983186924,0.3374451864601724,0.2865756130177033,0.2634135967127804,0.4802180342267093,0.4887488671556639
0.57421875,0.1482841014421865,0.12053897080477327,0.18987978478435252,0.3055727688661136,0.25950794224627316,0.23853363018133678,0.43486042500262556,0.44258550246922823
0.578125,0.1353545684423807,0.1100286510791193,0.17332332902242342,0.2789285531434871,0.23688031092206074,0.21773482217213314,0.3969430224515236,0.4039945338263351
0.58203125,0.1250818399967102,0.10167804020966287,0.1601689803010231,0.25775929657356755,0.21890230073040584,0.20120987187510764,0.3668170904802537,0.3733334210664907
0.5859375,0.1166760199566852,0.09484501362067022,0.1494052099815235,0.24043720259214751,0.20419150814632303,0.18768804466162692,0.3421660323965625,0.34824444128389587
0.58984375,0.10871134747958422,0.08837059795041569,0.1392063353478079,0.22402420540856838,0.190252748666353,0.17487587911091396,0.3188087021044339,0.3244721824557928
0.59375,0.09966635872160623,0.08101799409132582,0.12762410506184096,0.20538496414701513,0.17442336286421778,0.16032586813707894,0.29228320386209816,0.2974754806928104
0.59765625,0.08852540389625574,0.07196159401701152,0.11335796301636947,0.18242651833588752,0.15492587124299462,0.14240423240607925,0.25961105620808667,0.2642229333105206
0.6015625,0.07519421529877945,0.06112477990427578,0.09628719510601513,0.15495460559122876,0.13159532841200416,0.12095934209810366,0.22051580117476988,0.22443315117470775
0.60546875,0.060543335678175936,0.049215195474516804,0.07752655051262991,0.12476316157972178,0.10595523036727172,0.09739156325849763,0.1775503903900244,0.18070447538320877
0.609375,0.046039222212357345,0.0374249182755193,0.058953840920139555,0.09487418139997317,0.08057197931066185,0.0740598764537026,0.13501538376203825,0.13741386339916062
0.61328125,0.03309462215383974,0.026902355898528185,0.042378104581075604,0.06819891495979391,0.05791799040366641,0.053236860253491614,0.0970538351907635,0.0987779458228033
0.6171875,0.02239399066183978,0.018203897056423557,0.028675804841782337,0.046147857091227706,0.03919110724837083,0.03602354681220277,0.06567298527215826,0.06683963249543012
0.62109375,0.013472000404135542,0.01095128254746669,0.017251077011337657,0.027762089516158994,0.02357697859167729,0.021671406003065385,0.03950821181319952,0.04021005395316024
0.625,0.004731935732138481,0.0038465528540143623,0.0060593068340608625,0.009751218499332026,0.008281230812201557,0.007611913765970257,0.013876952920099939,0.014123470393201387
0.62890625,-0.006076939396137959,-0.004939895603683908,-0.007781602029410806,-0.012522900938449766,-0.010635084812804507,-0.009775520837251861,-0.017821331965706122,-0.018137919610694553
0.6328125,-0.021079742396068468,-0.01713555519700094,-0.026992893253918737,-0.04343955595231819,-0.03689108041271538,-0.03390941571979056,-0.06181880252142946,-0.06291698184668348
0.63671875,-0.04146493282064512,-0.03370651668888058,-0.053096403718200236,-0.08544783014485802,-0.07256664247279332,-0.06670155983101722,-0.1216007490256743,-0.12376092684007745
0.640625,-0.06692314968859137,-0.054401301241568945,-0.08569599430074959,-0.1379102201326532,-0.11712037206734749,-0.10765430147330335,-0.19625994696070848,-0.1997464096348267
0.64453125,-0.09552522328704072,-0.07765169129925198,-0.12232132462486334,-0.19685121799284389,-0.16717606854399492,-0.153664331037362,-0.280138834796162,-0.285115362430588
0.6484375,-0.12407473093389854,-0.10085935997494744,-0.15887934523561853,-0.2556838865075406,-0.21713977105264348,-0.19958979180501046,-0.3638635917013744,-0.3703274558120029
0.65234375,-0.14881538845656905,-0.12097083867956826,-0.19056008682127867,-0.3066676015350822,-0.2604377300485794,-0.2393882425621996,-0.43641844627018145,-0.44417120648176933
0.65625,-0.1662717181716289,-0.13516095975774078,-0.21291315022153867,-0.34264027704011824,-0.29098757181600376,-0.2674689483228576,-0.48761114612716483,-0.4962733441971068
0.66015625,-0.17398321006112383,-0.1414295667245824,-0.22278781841578166,-0.3585315653253929,-0.3044832226350991,-0.2798738591991423,-0.510226016103843,-0.5192899266148743
0.6640625,-0.17095307214276545,-0.13896639927679644,-0.21890770085519762,-0.3522872873418237,-0.2991803000895743,-0.2749995076101186,-0.5013397981201706,-0.5102458544570254
0.66796875,-0.15774105577293085,-0.12822646056065423,-0.20198953620820248,-0.32506096658835304,-0.27605830155152944,-0.2537463217322511,-0.4625940448477195,-0.4708118126472982
0.671875,-0.13624064365558297,-0.11074893535578667,-0.1744579662954493,-0.2807545058658434,-0.2384309993885836,-0.21916019932177733,-0.39954156250132655,-0.40663923073225305
0.67578125,-0.10925531768180008,-0.08881278290573391,-0.13990289460252825,-0.22514517183935823,-0.19120473382372438,-0.17575091249000252,-0.3204039558113436,-0.3260957726070046
0.6796875,-0.08000725415513443,-0.0650372626864737,-0.10245035753086995,-0.16487295795286627,-0.14001849990563642,-0.12870172838574945,-0.23463059051209711,-0.23879869104348472
0.68359375,-0.05168169536773348,-0.04201164216510733,-0.06617910486284018,-0.10650177273419104,-0.09044671855917841,-0.08313650567970399,-0.15156260246840247,-0.1542550336353088
0.6875,-0.027058822738013077,-0.021995901988702826,-0.03464918307827247,-0.05576079331603978,-0.04735490222174121,-0.04352751759029161,-0.07935314982887576,-0.0807628168786323
0.69140625,-0.008241761051408503,-0.00669966215838258,-0.01055368503699583,-0.01698400353689067,-0.014423680028130548,-0.013257908548780506,-0.024169924728312253,-0.024599291492677366
0.6953125,0.00352483131571546,0.002865307546784379,0.00451359394304518,0.007263708301508132,0.0061687108754426845,0.005670134584079278,0.010336979272551616,0.010520610160824617
0.69921875,0.007940494484159899,0.006454765166807874,0.01016790918129118,0.016363175703304478,0.013896441330984999,0.01277328376403375,0.023286425232527108,0.02370009788421612
0.703125,0.005617427412119014,0.004566361955227194,0.00719319093178683,0.011575973069000156,0.009830904978969102,0.00903633790017011,0.01647375924562766,0.016766408705848335
0.70703125,-0.002088313078019155,-0.0016975730821044976,-0.002674112931089212,-0.004303438938535464,-0.0036546994319763826,-0.003359314160178428,-0.006124221574310695,-0.0062330149930289735
0.7109375,-0.013374190643844486,-0.010871772815335135,-0.017125829643305224,-0.027560529858305927,-0.023405803517562163,-0.021514066972372348,-0.03922137281620053,-0.039918120364745846
0.71484375,-0.02636364371255695,-0.021430796692811782,-0.033758997375343824,-0.05432822192119602,-0.0461382896332907,-0.042409233458329254,-0.07731446061143288,-0.07868791129794772
0.71875,-0.039463959211616384,-0.03207993870546488,-0.050534129769630454,-0.08132437301355822,-0.06906479654844588,-0.0634827443946051,-0.11573266078812594,-0.11778859487776572
0.72265625,-0.05161475513659752,-0.041957225249689145,-0.06609338498719808,-0.10636382086204321,-0.09032956427290628,-0.08302882292809954,-0.15136627951051196,-0.15405522901801305
0.7265625,-0.06236426486339042,-0.05069541586522064,-0.07985827465972761,-0.12851560882154445,-0.10914198611544634,-0.10032075437038657,-0.18289047432062944,-0.1861394309798925
0.73046875,-0.07176686978027647,-0.05833872052107836,-0.09189844263346458,-0.14789179658691864,-0.12559723927552113,-0.11544603495394767,-0.21046471943009237,-0.21420351004053373
0.734375,-0.08015251040660587,-0.06515534067830231,-0.10263635630280987,-0.16517228118573257,-0.14027270367478195,-0.1289353832589768,-0.23505657509304,-0.2392322357991361
0.73828125,-0.08785591631976786,-0.0714173822302655,-0.11250067899482019,-0.18104690013842628,-0.15375422890429036,-0.1413272912031971,-0.2576477129423438,-0.2622247166073066
0.7421875,-0.09500168118847796,-0.07722611172766847,-0.12165092755367368,-0.19577235832457518,-0.16625983789708698,-0.15282215315437497,-0.27860349405273155,-0.2835527652678138
0.74609375,-0.10141987161205179,-0.0824434067681068,-0.12986950537197117,-0.20899847186228726,-0.1774921400965468,-0.16314660911120882,-0.29742560059276,-0.30270922479758156
0.75,-0.10672466288497162,-0.08675563378801598,-0.1366623649801113,-0.21993018606281112,-0.18677590674087696,-0.17168004262657632,-0.31298250746658596,-0.31854250437390874
0.75390625,-0.11053328563548348,-0.08985163191255197,-0.14153934557725734,-0.22777871322432475,-0.1934412665605123,-0.17780668315481307,-0.324151727681965,-0.3299101365428214
0.7578125,-0.11274804734284771,-0.09165199799099355,-0.14437539164191548,-0.23234272816807788,-0.19731726297322894,-0.1813694154861878,-0.33064679882954806,-0.3365205714089825
0.76171875,-0.1137863208100498,-0.09249599486338411,-0.14570490236565092,-0.2344823286648534,-0.19913431970053352,-0.18303960303001077,-0.3336916449825367,-0.3396195040750172
0.765625,-0.11463980342796276,-0.09318978300143499,-0.14679780235837825,-0.23624112088782567,-0.20062798000708426,-0.18441252791490115,-0.33619457440181577,-0.34216691346955486
0.76953125,-0.11668659993802066,-0.09485361118777291,-0.1494187529260671,-0.24045900204328063,-0.20421001067916222,-0.18770505505472102,-0.3421970404815511,-0.34827601780307305
0.7734375,-0.12126257331601664,-0.09857338056917797,-0.15527834307249577,-0.24988881364151894,-0.21221829626938415,-0.19506607884522964,-0.3556166063845012,-0.36193395658301597
0.77734375,-0.1290988791424752,-0.10494345303868613,-0.16531284074972064,-0.2660372899754293,-0.22593239634716156,-0.20767177488778543,-0.3785974911352241,-0.3853230907679972
0.78125,-0.13981313884414703,-0.11365299457111178,-0.1790325967476747,-0.2881164391510538,-0.244683150185665,-0.22490701212518616,-0.4100183161881432,-0.41730208977242
0.78515625,-0.15166530431542924,-0.12328752063694992,-0.19420946273385198,-0.3125404930415243,-0.2654252853062644,-0.24397272113674262,-0.4447761909887049,-0.4526774262103572
0.7890625,-0.16173599703961372,-0.13147391086931748,-0.20710510284516204,-0.3332934284117073,-0.2830497294326051,-0.26017266918643145,-0.4743096440051886,-0.48273551556121674
0.79296875,-0.16656052537200594,-0.13539572307763592,-0.2132829735046471,-0.3432354560573003,-0.29149299507480464,-0.267933529585207,-0.48845811306819087,-0.49713537464413093
0.796875,-0.16309192574226472,-0.13257613318273798,-0.20884138507426542,-0.33608762350922916,-0.2854227147963684,-0.2623538648549584,-0.478286096949887,-0.4867825964538497
0.80078125,-0.1497245136761194,-0.12170987417903234,-0.19172424003954802,-0.3085410469338967,-0.262028748920784,-0.24085071004265046,-0.4390845731450099,-0.44688468392450886
0.8046875,-0.12704205687441572,-0.10327147492716904,-0.16267905778022396,-0.26179876044807315,-0.22233281526951032,-0.2043631184278638,-0.37256563700793777,-0.3791840867961582
0.80859375,-0.09799927624953853,-0.07966283277482944,-0.12548937888823275,-0.20194956107388862,-0.17150584596947738,-0.1576441519546279,-0.2873943003578461,-0.292499720444539
0.8125,-0.06740143732031356,-0.054790096015722156,-0.08630844661183801,-0.13889582817228074,-0.1179574056209276,-0.10842368425301174,-0.19766257253195363,-0.2011739468343876
0.81640625,-0.0407720897044328,-0.03314330854209402,-0.05220920584747546,-0.08402006557162167,-0.07135411550507342,-0.06558703091741336,-0.11956890944020415,-0.12169299168363068
0.8203125,-0.022916257336191848,-0.018628442788326538,-0.029344572993750262,-0.047224105514942494,-0.04010511389651583,-0.036863678332110794,-0.06720459566622594,-0.06839844957085006
0.82421875,-0.016614229991773755,-0.013505576212935466,-0.02127474374447047,-0.034237359614053275,-0.029076108631898023,-0.026726077351213462,-0.04872316594628501,-0.049588710027137495
0.828125,-0.021864465793441923,-0.017773450267100088,-0.02799774101447383,-0.04505665174292517,-0.03826439964882411,-0.0351717410751462,-0.06412009412315456,-0.06525915097199686
0.83203125,-0.03593124020540017,-0.029208221619114738,-0.046010434573418024,-0.07404441504377246,-0.06288227893946896,-0.05779991951726515,-0.10537255690223901,-0.10724444621246221
0.8359375,-0.05419634874215262,-0.04405578124533349,-0.06939914953818516,-0.11168377511694416,-0.09484754315280952,-0.08718163968524095,-0.15893711236003583,-0.16176053918570688
0.83984375,-0.07155316694706926,-0.05816500348032605,-0.0916247913096413,-0.14745141641014925,-0.12522323800112645,-0.11510226727295958,-0.20983800652629725,-0.2135656700374966
0.84375,-0.08390708927663582,-0.06820740594548624,-0.10744414424834758,-0.17290943787884316,-0.14684349025628762,-0.13497509598892066,-0.2460673158566351,-0.25043857476703124
0.84765625,-0.08931716877214058,-0.07260521783791773,-0.1143718293405982,-0.18405812340915872,-0.15631152905370982,-0.14367789447078394,-0.26193299618171295,-0.2665861131845304
0.8515625,-0.08843750265441486,-0.07189014183950349,-0.11324540594159771,-0.18224537257083284,-0.15477203874070256,-0.14226283440166299,-0.2593532713035529,-0.26396057251076854
0.85546875,-0.0841467056034162,-0.06840218702564016,-0.10775098502335823,-0.1734032224476323,-0.14726283836807852,-0.1353605512122158,-0.2467700142005924,-0.2511537786631379
0.859375,-0.08051129185560058,-0.0654469900496224,-0.103095786130325,-0.1659116435348551,-0.14090059607951844,-0.1295125287015253,-0.23610874677615357,-0.24030310896705487
0.86328125,-0.08142920648879226,-0.06619315939815351,-0.10427119434552878,-0.1678032219842862,-0.1425070195182343,-0.13098912177156308,-0.23880065214143542,-0.24304281964759866
0.8671875,-0.08938305029460025,-0.07265877144391197,-0.11445618497418764,-0.18419389391510776,-0.15642682171801425,-0.1437838648143952,-0.26212620696242084,-0.26678273457036994
0.87109375,-0.10467843480910233,-0.0850922674544563,-0.13404213916601293,-0.2157134701974428,-0.18319485661777435,-0.16838842498145823,-0.30698171826770704,-0.31243507692124695
0.875,-0.12537664417777705,-0.10191767785272532,-0.16054646323482302,-0.258366782190933,-0.21941822581084125,-0.20168408809695393,-0.3676816220377077,-0.37421330034703715
0.87890625,-0.14790842328693543,-0.12023357953694358,-0.1893987189305335,-0.30479858992293885,-0.2588504628420196,-0.23792928516286338,-0.4337586858582654,-0.44146420918877993
0.8828125,-0.16815026526728616,-0.13668801557287225,-0.21531866423174506,-0.3465114559730864,-0.29427516778923746,-0.27049082973462646,-0.49312023975289776,-0.5018802653466992
0.88671875,-0.18261665957197692,-0.14844762574739434,-0.23384306757634477,-0.3763227311992523,-0.31959240232026787,-0.29376184329521493,-0.5355446432986355,-0.5450582989396935
0.890625,-0.18940767176900408,-0.15396798858091643,-0.24253904484794475,-0.39031712617543235,-0.33147716749226674,-0.30468603995359445,-0.5554600761570327,-0.5653275252370804
0.89453125,-0.1886474194634502,-0.15334998693106172,-0.24156554445653455,-0.3887504647082096,-0.33014666200870124,-0.3034630822185136,-0.5532305635824741,-0.5630583927995758
0.8984375,-0.18231979481697635,-0.1482063112234755,-0.23346294142356783,-0.3757109823254723,-0.3190728818935895,-0.2932843017333653,-0.5346740294953634,-0.5441722805699101
0.90234375,-0.17359361947910656,-0.14111287782725412,-0.2222889463610045,-0.35772873729911225,-0.3038014142475731,-0.2792471605062019,-0.5090835202281596,-0.5181271376386576
0.90625,-0.16587195261763554,-0.13483600014296826,-0.21240126102384238,-0.3418165022139874,-0.29028797143837437,-0.2668259071469947,-0.4864388642999984,-0.4950802008352184
0.91015625,-0.16185720141947968,-0.13157243472505797,-0.20726029958950676,-0.33354316997247224,-0.2832618406500842,-0.260367642113124,-0.47466508590332523,-0.4830972670788469
0.9140625,-0.16288575466205657,-0.1324085445730816,-0.2085773900262211,-0.3356627757966635,-0.2850619011951494,-0.262022211927615,-0.4776814535034646,-0.48616726644468145
0.91796875,-0.1686771611275617,-0.13711633073398843,-0.21599336719191342,-0.34759725053845614,-0.2951972817299975,-0.27133842195325997,-0.4946654144077911,-0.5034528953729023
0.921875,-0.17750669201177516,-0.14429377870328608,-0.22729969373358472,-0.3657924878552876,-0.31064959671311954,-0.2855418301805912,-0.5205590696277795,-0.5298065275383124
0.92578125,-0.18669861390208098,-0.15176581769082986,-0.23907006152512622,-0.3847345340091124,-0.3267361137204716,-0.30032819609004946,-0.5475154694067896,-0.5572417762778059
0.9296875,-0.19327875122598925,-0.15711476919477718,-0.24749601834628265,-0.398294389469811,-0.33825185141722613,-0.3109131796463771,-0.5668124458679813,-0.576881632241566
0.93359375,-0.1946273471276072,-0.1582110229492173,-0.249222921411274,-0.4010734642179159,-0.3406119901683269,-0.313082551883781,-0.5707673835786409,-0.5809067715745186
0.9375,-0.18901378950886283,-0.1536478038133282,-0.2420346731923928,-0.38950545899751887,-0.33078785577345116,-0.30405243478526245,-0.5543049610423623,-0.5641518896482012
0.94140625,-0.17594462065062544,-0.14302398199106392,-0.22529943066729174,-0.3625734734669095,-0.3079158545915561,-0.28302903842813976,-0.5159781153452059,-0.52514417347993
0.9453125,-0.1562916054353991,-0.1270482101745074,-0.2001334991064141,-0.3220740438791836,-0.2735216639848659,-0.25141468995570904,-0.4583433508287271,-0.46648560214634927
0.94921875,-0.13218527783465106,-0.10745237233322769,-0.16926502155456546,-0.27239752853347454,-0.23133384274842683,-0.212636649621345,-0.38764875398555887,-0.39453513522857975
0.953125,-0.10667512384543443,-0.0867153602257531,-0.13659892772466264,-0.21982810949339182,-0.18668920631625952,-0.17160034815333347,-0.31283724410968716,-0.31839462621974235
0.95703125,-0.08318786370864473,-0.06762275717164812,-0.10652317428139213,-0.17142731678632117,-0.14558480643245275,-0.1338181334631372,-0.2439581123780954,-0.24829191147546226
0.9609375,-0.06486424553031611,-0.052727632038340744,-0.0830595325851391,-0.13366738471631834,-0.11351713880003445,-0.10434229125166894,-0.19022196795503987,-0.19360116709776776
0.96484375,-0.053905967689615863,-0.04381973184308663,-0.06902731541913454,-0.11108537734116908,-0.09433935588276654,-0.0867145217853249,-0.15808552689122735,-0.16089384757833614
0.96875,-0.051091724628804513,-0.041532057792892374,-0.06542364161532532,-0.10528599858616872,-0.0894142289098454,-0.08218746216925865,-0.14983244511768135,-0.15249413820583868
0.97265625,-0.05560177029906299,-0.045198238041166405,-0.07119881217931834,-0.11457996151875705,-0.09730712946520725,-0.08944243745645508,-0.16305867234223115,-0.16595532770224963
0.9765625,-0.06522153483956572,-0.053018069934296363,-0.08351705105269502,-0.13440366330996767,-0.11414242351293069,-0.10491704216519793,-0.19126976269490115,-0.19466757805730595
0.98046875,-0.07689552461442872,-0.06250775896887717,-0.09846574755556503,-0.1584605371363068,-0.13457274405936914,-0.12369611113172141,-0.22550507594587543,-0.22951107325752673
0.984375,-0.0875030252700526,-0.07113051481155708,-0.11204879513115884,-0.18031967385923053,-0.1531366393692224,-0.14075961018988892,-0.2566128216585639,-0.26117140805581585
0.98828125,-0.0946580414051823,-0.07694676895653174,-0.12121088843741745,-0.19506420301240723,-0.16565843452553963,-0.15226936511680833,-0.2775957455014577,-0.2825270826178894
0.9921875,-0.09731643757504571,-0.079107763895081,-0.12461499920846109,-0.20054243066169875,-0.1703108267747666,-0.15654572393941635,-0.2853917919765081,-0.29046165650470357
0.99609375,-0.09601286166116552,-0.07804809598610518,-0.12294574958104931,-0.19785611016231996,-0.16802947300220694,-0.15444875600678643,-0.2815689015278622,-0.286570838170519
1.0,-0.09264324063451568,-0.07530896084517735,-0.11863091486929989,-0.1909122602228308,-0.16213239462103957,-0.14902830969276692,-0.27168709948455216,-0.2765135036497668
