time,Fz,Cz,Pz,Oz,P3,P4,PO7,PO8
-0.19921875,0.03354644206865487,-0.0990014044077725,-0.08951793262212959,-0.02856682890239881,-0.14876052034651366,-0.03764292699770522,-0.23027264717256912,0.016710783867779355
-0.1953125,0.06965132115510642,-0.05028199723255966,-0.01250355019521976,0.025963277749951885,-0.08023583575322846,0.01657520343201213,-0.18176264404701215,0.05111856893336153
-0.19140625,0.11266826760447657,0.003290271610723039,0.05555141768809335,0.05959426729873485,-0.016579928541204936,0.06434341770500396,-0.1376662339680479,0.06714817857300659
-0.1875,0.15349854720625444,0.05205925646123433,0.10186573717874126,0.06279295661215656,0.03295624395605046,0.0950982368408404,-0.10666038718909476,0.060507765908823785
-0.18359375,0.18452033145877067,0.08808634532897486,0.11901491347998672,0.03341925847166749,0.06219445936039847,0.10342188261347474,-0.0939721687132078,0.032954233120108256
-0.1796875,0.20143005485806498,0.10710314768402895,0.10702858332933829,-0.021976893194164404,0.0699732538578246,0.09045096760473825,-0.09940411160869189,-0.008024424680286302
-0.17578125,0.20408054979270673,0.10934521554872845,0.07325236595079332,-0.08934063799870273,0.06059731560981163,0.06318904155477867,-0.1168211980484557,-0.051245820031908806
-0.171875,0.1959883206836821,0.0989780417626207,0.029961878311723922,-0.15061114311265555,0.04244514073548089,0.031948427903216725,-0.1355539609448897,-0.08503049997443668
-0.16796875,0.18267949997152755,0.08235143411639001,-0.009484134366744001,-0.18860754380511935,0.025121488889112698,0.00681775125244144,-0.14352696098285378,-0.10061064159572197
-0.1640625,0.16951341308413248,0.06576983224704236,-0.03462930919795326,-0.1918697591918317,0.016179491524326295,-0.005591111129632509,-0.13123121789249126,-0.09469457040722773
-0.16015625,0.15984369383659214,0.05364152499964803,-0.04067666381502022,-0.15796635466358566,0.018674832347187476,-0.003973886997243881,-0.09521590982330963,-0.07036958749040423
-0.15625,0.1542328789128078,0.04767897365809404,-0.0291295467746977,-0.09422524271940347,0.0305115435139669,0.007851529204572216,-0.03980621698929099,-0.03604996479111833
-0.15234375,0.15097153038823308,0.04734291536578894,-0.00624759755041282,-0.01565677365533702,0.04580420664979101,0.02296881795871286,0.02369127294343798,-0.0028168896104574515
-0.1484375,0.14757254973574163,0.051167926784501105,0.01992663278826967,0.05925869572820375,0.057633780414789726,0.0343607986508232,0.08014593788630009,0.018974271043248336
-0.14453125,0.14248212210077327,0.058230327226738154,0.042720785131677985,0.11357398221889525,0.06099636351564186,0.03768542100601735,0.11509404629350684,0.022718216641237632
-0.140625,0.1361696178037164,0.06899026061546465,0.05894201038358915,0.13611985139050375,0.0546961409497726,0.03277582294458625,0.11902272945008008,0.007265172463633007
-0.13671875,0.1310672956833514,0.08506678028652459,0.06922953588173186,0.12376177949136036,0.04143071663520459,0.02334580884166826,0.08997243128305854,-0.023180453112559007
-0.1328125,0.13037698920470575,0.10803115202406843,0.07669626711503952,0.08114984950680082,0.02612510030530757,0.015087698201909916,0.03360463196599994,-0.060854269179344556
-0.12890625,0.1362926411729859,0.13778867469227407,0.08459100087065963,0.01828142437432234,0.01332684629318237,0.012954267880616044,-0.039182197042464395,-0.09726557692602
-0.125,0.14846396823031682,0.17134829022324993,0.09405912493321011,-0.05312209694352532,0.004855855273433463,0.0187071638180214,-0.11611105321662762,-0.12610362887244264
-0.12109375,0.1634345068168841,0.202657645331783,0.10297920027824148,-0.1231139066248943,-0.0012352003864180006,0.029704516180117935,-0.18736595563950686,-0.14524559333040088
-0.1171875,0.17538066288125265,0.2237660368109573,0.10637798197876691,-0.18572782778392138,-0.009908120546242571,0.039444717714332,-0.24797438413770578,-0.1571933125887881
-0.11328125,0.17794174311802635,0.22704404045725823,0.09828445257653584,-0.23925511527522758,-0.026868670843782638,0.03974668416617533,-0.2979006694658892,-0.16777970301973255
-0.109375,0.16648743894620566,0.20774744768914388,0.07431905402199845,-0.28469074209169776,-0.05568222150031943,0.02384632580287871,-0.33994851378338353,-0.1835665699445599
-0.10546875,0.13998538861415,0.16603097208189865,0.03402580972533542,-0.3231370158118807,-0.09544238110947845,-0.010673447903286615,-0.37646523765033635,-0.2088248152176675
-0.1015625,0.1017606550135497,0.10765605651386068,-0.017970126720001645,-0.3533512824560603,-0.1399693161374671,-0.06019929799094825,-0.4063449807745201,-0.24318057967320783
-0.09765625,0.05881852871425508,0.043043151265464985,-0.07249519740071264,-0.37057665736028866,-0.17895580128879374,-0.11535082222735582,-0.42372673192403454,-0.28083542247259174
-0.09375,0.019892588909442566,-0.015147877618915118,-0.11798123011885764,-0.3672978721169784,-0.2007658963520953,-0.1632470798540453,-0.4190974607354292,-0.3117526148344041
-0.08984375,-0.007184234096513364,-0.05524453783323224,-0.14360361433318758,-0.33578453439986333,-0.19598385847530153,-0.191134645888269,-0.3825099668119947,-0.3245091306780523
-0.0859375,-0.01794271398125602,-0.06965523624558045,-0.1424112952008727,-0.27151583026352455,-0.16052555906753696,-0.1902269417541902,-0.30771349202041165,-0.3098899412634637
-0.08203125,-0.012757071843338963,-0.056908227463736694,-0.11343437478217311,-0.1761323886739774,-0.09725859229092748,-0.15847746226427262,-0.19556181030111475,-0.2639921206082363
-0.078125,0.0031810967193734996,-0.022023591839115397,-0.0620801614559241,-0.05863277152684532,-0.015578056178355837,-0.101332290114442,-0.055291948797275836,-0.18974419901951478
-0.07421875,0.02143344168814565,0.024888782590437586,0.0013101002505067072,0.06587284673287286,0.07092618403703455,-0.030183677779405116,0.09692983127251864,-0.09629832220525714
-0.0703125,0.03294536909947965,0.0713682624109424,0.06426567722428445,0.17963540699383884,0.14794581204569113,0.040956393831947935,0.24175486146305047,0.0034835980766700914
-0.06640625,0.03086829636345101,0.1058384455632222,0.11543905031885515,0.2668839442776516,0.20396043964865385,0.0994246889263195,0.36140016845820355,0.09654968380345963
-0.0625,0.012613527999860707,0.12037092744776601,0.1472845951866475,0.318028440915441,0.2327120967038354,0.13717863112105988,0.44378421648616495,0.17295575105436
-0.05859375,-0.01956588668861059,0.11220833329161906,0.15739216507881792,0.33200385018972156,0.23400204440804373,0.15233378292123234,0.48474981895196834,0.22786544207065162
-0.0546875,-0.05964052007811915,0.08372397530820308,0.1482113702877541,0.31597656402482244,0.21277310224832036,0.14860832209251384,0.4878560275756172,0.2617334473598021
-0.05078125,-0.10008938744476836,0.04101991990523857,0.12546078664854576,0.282589724065474,0.1769978155152785,0.1330932803966789,0.46212008442125807,0.2788644621887215
-0.046875,-0.1345399027741223,-0.008232428072574294,0.09591024507926704,0.24578289981036505,0.13519404262751777,0.11332495120086605,0.41873892087096465,0.28510325478237064
-0.04296875,-0.15980731404852122,-0.05696321281334349,0.06532032159611845,0.21665150029548386,0.09435103720534244,0.09476552520482073,0.3679912197185331,0.28560074838424043
-0.0390625,-0.17666243934399972,-0.10027751073948821,0.037124344487438066,0.20067024308900727,0.05874297670516171,0.07948618474529212,0.31722061066830065,0.283385048760465
-0.03515625,-0.18918078126262117,-0.13613593807804136,0.012071453170392488,0.19699146491802821,0.029709427806778876,0.06627378468238021,0.27023020265914965,0.27899974952561024
-0.03125,-0.20305637349338213,-0.1651776386779602,-0.011307402125737553,0.19973427356489992,0.006176525513268416,0.0518223295387088,0.22786362308124808,0.27101049226985197
-0.02734375,-0.2235807556871805,-0.18993704031800007,-0.03575699381030972,0.2005337762511772,-0.014423211958103366,0.032354734003092744,0.18922557387668348,0.25694023975120217
-0.0234375,-0.25399344849574845,-0.21376752101787133,-0.06424631493473498,0.1913501250783156,-0.03512515078796241,0.0050355644098942776,0.15297217714760336,0.23423072548212076
-0.01953125,-0.29465667239492177,-0.2397397338427254,-0.09906599274245309,0.1666792144305873,-0.05848275463904429,-0.031200595884683935,0.11829298784959974,0.20104205589177582
-0.015625,-0.34315181096644665,-0.2697168497434177,-0.14119308389126672,0.12471629418087105,-0.08580573052086038,-0.07544925750835318,0.0854507646863567,0.15690312693550368
-0.01171875,-0.39510285887445207,-0.3037712872355769,-0.1899504269431418,0.0674718165782906,-0.11669924759871719,-0.1250839147814986,0.05591117613334973,0.1032722352078963
-0.0078125,-0.44538853671838297,-0.3400874959424982,-0.242961618823756,0.00013346683480630617,-0.149036139873715,-0.17622646453219204,0.03214231725223726,0.043947572692104586
-0.00390625,-0.48940290753307636,-0.37543276221185806,-0.29640631282745744,-0.06996344126264376,-0.1794455926074079,-0.2243059640250067,0.017145611153068785,-0.014897732825147614
0.0,-0.5240896712166432,-0.40613210217088636,-0.34556396144580503,-0.13449850655433693,-0.20424650415407086,-0.26468288183423283,0.013776884522087585,-0.06532837915074197
0.00390625,-0.5485508722813393,-0.42928198240588245,-0.3855777492844936,-0.18534939272285555,-0.22054391024539655,-0.29334822215787426,0.023971365337160933,-0.09901695108283093
0.0078125,-0.5641003895107133,-0.4437764857811999,-0.412294724583262,-0.2157607781327897,-0.22706620939061395,-0.30763982294956804,0.04806897990761172,-0.10915315584725249
0.01171875,-0.5737268224947911,-0.45071325871504087,-0.422993707616115,-0.22143196076740423,-0.22437023972088355,-0.3068122964577924,0.0844699599156229,-0.09234866382712426
0.015625,-0.5810763354929804,-0.45294919459593075,-0.41683463791741815,-0.20136232592449232,-0.21430277286071941,-0.2922501494140306,0.12977686481008277,-0.0498603469623049
0.01953125,-0.589232286074548,-0.4539243434464879,-0.39495111536780314,-0.1582273796429945,-0.19897534286883456,-0.2671848449153913,0.17940753593848058,0.01238362212774291
0.0234375,-0.5996894856252766,-0.45621615640811797,-0.3602184222017968,-0.09809421186446343,-0.17978675259655574,-0.23594610354393808,0.2284765088234053,0.08506195570134878
0.02734375,-0.6119061026765849,-0.4604448520240112,-0.31680900747232954,-0.029436673543159486,-0.15704330280641443,-0.2029687493632082,0.2726418699694477,0.15766971728226054
0.03125,-0.6236390959202254,-0.4650330538424896,-0.26965855681737594,0.03838024298374876,-0.1304380816691264,-0.17188186518524162,0.3086588833411952,0.2209496727800797
0.03515625,-0.6319776275631739,-0.46696362687725923,-0.2239211056576096,0.09679985168986605,-0.10018779050824378,-0.1449774060802156,0.3345430741319433,0.2687864650852134
0.0390625,-0.6347044063659268,-0.46324399249897397,-0.18443311944338348,0.13954301891772047,-0.06823226073038313,-0.12319745223976497,0.3494297970974003,0.2990481959841418
0.04296875,-0.6314645020211174,-0.4524736141320318,-0.1551846082747943,0.16350148257515684,-0.03879993215605282,-0.1065716617176804,0.3533174606218381,0.31327053306995367
0.046875,-0.6242780727916397,-0.4358649903224432,-0.13883047245144553,0.16888125742298143,-0.01790681736224542,-0.09487059315915758,0.34685439231907367,0.3154677870043088
0.05078125,-0.6171746917971177,-0.41729981603566557,-0.13633905382448575,0.15863069791066664,-0.011863114934840269,-0.08818541630262189,0.3312074170480628,0.31057172122928023
0.0546875,-0.6150562512630131,-0.4023907820283057,-0.14691173078063002,0.13736487858295732,-0.02535055365626704,-0.08720858346578098,0.3079382508985873,0.3029935271570139
0.05859375,-0.6221688977348094,-0.396889760168051,-0.16826660953483952,0.11009839084863415,-0.059851601008631405,-0.09313117033116214,0.2787916173474514,0.29563707926172356
0.0625,-0.6406862667063251,-0.4049854283039167,-0.19725897004718718,0.08110602323085914,-0.11305323255328403,-0.10722109777816513,0.24538704224141838,0.28948170438525267
0.06640625,-0.6698476795463648,-0.4280163352632371,-0.23066549204031617,0.0531549808613363,-0.17940899965651624,-0.1302462493413259,0.20892987606657698,0.283695413827445
0.0703125,-0.705899935837806,-0.46394461605814286,-0.26587244406073296,0.02722313752201444,-0.2515610617592756,-0.16193665430819237,0.17011062425353884,0.276168748314376
0.07421875,-0.742860493119224,-0.50769284598573,-0.3012418403613992,0.0026763780081040522,-0.3220390851765842,-0.20065454009454697,0.1292847287004406,0.26434085498294735
0.078125,-0.7739193961242563,-0.5522422839021601,-0.3360772780069965,-0.02223099926368377,-0.3846747063107614,-0.2433861254758085,0.08685390895379896,0.24616460336801538
0.08203125,-0.7931675440886465,-0.5902517727918166,-0.3702989488374442,-0.04971413503085387,-0.43542962657738826,-0.2861002030840609,0.04362308914096502,0.22101158947407384
0.0859375,-0.7972690809765481,-0.6158744554340956,-0.404055015224003,-0.08183052813137692,-0.4726456950265856,-0.32443483632960124,0.0009025443170607161,0.19027540076876903
0.08984375,-0.7866735245443124,-0.6263816203500028,-0.4374778086457809,-0.11995597049008211,-0.49690504511090694,-0.35457338753985823,-0.03970894368876543,0.15745685288948152
0.09375,-0.7659967877771123,-0.623174514657876,-0.47065182684491447,-0.16438480088254437,-0.5106747380523302,-0.37408037201203115,-0.07668663215554261,0.12763598533638287
0.09765625,-0.7433333166773082,-0.6118114583841816,-0.5036912398281856,-0.21405305972166389,-0.5177838602321572,-0.3824341661129438,-0.10877710820977882,0.10642222747492269
0.1015625,-0.7285166816473065,-0.6008749551256187,-0.5367427320379647,-0.2664145597464085,-0.5226870598562527,-0.3810629891631834,-0.13480617155892105,0.09864723438113288
0.10546875,-0.7306835527742805,-0.5998320489197795,-0.5697873461940617,-0.31755226359564404,-0.5295094069879269,-0.3728563058302825,-0.15316274470933422,0.10714617104667923
0.109375,-0.7557967478533101,-0.616410488873953,-0.6022764864610508,-0.36262287039789953,-0.541024917311006,-0.3613203887198324,-0.16133941471707658,0.13193765369123867
0.11328125,-0.8048924655668088,-0.6542518917740381,-0.6327807113848394,-0.39666537077209796,-0.5578660875471542,-0.3496694773730269,-0.15602577718709654,0.16999580054744
0.1171875,-0.8736361678529647,-0.711578479695163,-0.6588629162251891,-0.41566491404410044,-0.578265201056638,-0.34012930427707033,-0.13404287813045812,0.21566866337252577
0.12109375,-0.9533378602100129,-0.78129613712008,-0.677279331284808,-0.41761032321119274,-0.5984588824503589,-0.3335923963732057,-0.09395546385349007,0.2616740175653831
0.125,-1.0330663826607633,-0.8524834811396431,-0.6844490485491406,-0.40321356209460646,-0.6136297088232823,-0.3295990893548151,-0.037749558146060735,0.3004925872573949
0.12890625,-1.10214386950247,-0.9127852536039427,-0.677020807415829,-0.3760260085527989,-0.6190733188304876,-0.3265318468947953,0.028212136626848405,0.3258664378336107
0.1328125,-1.152256345449132,-0.9510164318271563,-0.6523833349092456,-0.34188562381132215,-0.6112651931289292,-0.3219411155441776,0.0935239796717724,0.3340133503115794
0.13671875,-1.1786812592617935,-0.959341832640348,-0.6090772330935579,-0.30786782190261874,-0.5886383860342903,-0.31301848935072485,0.14541204507168004,0.32414965289717657
0.140625,-1.1805464055214543,-0.9346381943942106,-0.5471677013701992,-0.28107922389608575,-0.5520470267583732,-0.2972842310100532,0.17126083662333258,0.2980511624173232
0.14453125,-1.1603746088439948,-0.8789133403297456,-0.4686306169787713,-0.26763950700114947,-0.504952595292707,-0.27347826403456565,0.16120536372454808,0.25869121600408107
0.1484375,-1.1232756378376507,-0.7988338666109485,-0.3776737287353171,-0.27204930574953323,-0.45329554154704965,-0.24245974827863392,0.11006361688714605,0.20838905356868054
0.15234375,-1.0760240911622532,-0.704477542967652,-0.2807586270137108,-0.29693310921175,-0.4049068991207605,-0.20774389497546508,0.018214542762962083,0.14719968532972416
0.15625,-1.026056679620524,-0.6074568545955117,-0.18604572460390045,-0.3429982768921036,-0.3683144029764662,-0.1752896707785112,-0.10859229604420761,0.07229726151081195
0.16015625,-0.9803086413739948,-0.5186455496186682,-0.10214493073590347,-0.4090480558716081,-0.3509963448777853,-0.1523689832083619,-0.26027251465166046,-0.021224053625701345
0.1640625,-0.9438937809136405,-0.4458988769329153,-0.03637468992678805,-0.4920090077575878,-0.3574626532554248,-0.14573392093097937,-0.42403016209391353,-0.13828585565534013
0.16796875,-0.9188658509629022,-0.39231574078257836,0.0069504566546640945,-0.5870879817848618,-0.38780922295700293,-0.15966817557000468,-0.5863820433660294,-0.28123290007897594
0.171875,-0.903502211713203,-0.3556064029908157,0.02756075190291085,-0.6882379466333077,-0.4373966930870665,-0.19465390721506992,-0.7354198601206008,-0.44775589458367904
0.17578125,-0.8925559313865961,-0.3289104313353164,0.02913621699462965,-0.789022294611641,-0.4979729055776261,-0.24719736302358797,-0.8630368029116653,-0.6302444717221078
0.1796875,-0.8786494731793937,-0.302966725485021,0.018039601812347428,-0.883756570146943,-0.5599986252491362,-0.3108957002950774,-0.9666467803981504,-0.8169488978637673
0.18359375,-0.8545237619728141,-0.2690315739073412,0.0013259917608365868,-0.9685925306257559,-0.6154047014206299,-0.3783068223128794,-1.0498072242626222,-0.9946140835381811
0.1875,-0.8154332817866816,-0.22159362345064437,-0.015215848137017929,-1.042119151861698,-0.6597688866349927,-0.4428566455771943,-1.1212774779778556,-1.1516614222273347
0.19140625,-0.7608098258060636,-0.15993596491625794,-0.02826046241466429,-1.1051672572648386,-0.6930850986464065,-0.5000487135475851,-1.19246226404357,-1.2807851135221426
0.1953125,-0.6945265340618789,-0.08798485851002624,-0.036999093566691954,-1.1597842330957064,-0.7188469908214756,-0.5476070441545744,-1.2737756378555787,-1.380079652335553
0.19921875,-0.623609025751648,-0.012526750303720746,-0.042173908809672866,-1.207692434945784,-0.7418442464768304,-0.5846982844559534,-1.3709832273889333,-1.4523992604154046
0.203125,-0.5558522389037535,0.05949297232632489,-0.04464758163180704,-1.2487937510741176,-0.7655837066522508,-0.6107893000262266,-1.482758193560585,-1.5033215277071577
0.20703125,-0.49724053496902343,0.12351905809282471,-0.04422761179512236,-1.2803395748051116,-0.790389947269432,-0.6248122303986747,-1.600410769242444,-1.5385799088107888
0.2109375,-0.4501467856243835,0.17878174674024194,-0.039307099797269984,-1.297197854910337,-0.8129578645821312,-0.6251009949664876,-1.710059564175026,-1.5619619944118313
0.21484375,-0.412977328778652,0.22800178101078927,-0.027491376286548075,-1.2932815707245027,-0.8275550271719112,-0.6101521421442158,-1.7966659697776777,-1.5744304846521118
0.21875,-0.38135891600177274,0.27554119697015267,-0.006934392615676188,-1.2637707413887256,-0.8284339969577559,-0.579853804083541,-1.8486716726329178,-1.5747066299809376
0.22265625,-0.3503715220176673,0.32475557532052335,0.022205684402365478,-1.2074161759301205,-0.8125489898702654,-0.5365927222555911,-1.8617265595821664,-1.5609776937708375
0.2265625,-0.31693642199570604,0.3756377111585607,0.05685189918835931,-1.1280865237495163,-0.7815365279384423,-0.48567125077170203,-1.8402678279016982,-1.5329528650909197
0.23046875,-0.28141556640548515,0.4237745656610059,0.09111054311006228,-1.0348804835302872,-0.7421452892231173,-0.4347169522134209,-1.79640937858494,-1.4933586953702616
0.234375,-0.24776835516604478,0.46118930185912177,0.11750581307978791,-0.9405565037923225,-0.7048082011351653,-0.3921344102764124,-1.7464786878917948,-1.4481944390354329
0.23828125,-0.22214001660358917,0.47895855459501036,0.12905482549285807,-0.8586001740695792,-0.680676635056443,-0.3650085318440688,-1.706293915049173,-1.405563466505555
0.2421875,-0.21033777386492147,0.47080268927857105,0.12156215234426782,-0.7997829243322485,-0.6779979457860463,-0.3571003901470249,-1.6866713394847466,-1.3734845651924843
0.24609375,-0.21509502801109193,0.43638274860313686,0.09536309875102233,-0.7693381007811695,-0.6990282486185606,-0.3676156268284103,-1.6905812572076684,-1.3575278217103914
0.25,-0.2341759852697578,0.3829801187293924,0.055829463718737316,-0.765777201650053,-0.7386200309156266,-0.3912473687250895,-1.7128493254858768,-1.359225620944926
0.25390625,-0.26015837306658796,0.3246554172164906,0.012269429028322065,-0.7818647986823635,-0.7851795658098126,-0.4196379848053766,-1.742498511703161,-1.3759309922534158
0.2578125,-0.28218863690199214,0.2787890878153121,-0.024657845543174517,-0.807522383183823,-0.8239460953518574,-0.44395491727300396,-1.7669690350885503,-1.40222653044475
0.26171875,-0.28928835149599763,0.26086470938935236,-0.04636261508039752,-0.8336924111063126,-0.8417266030846804,-0.45786279656567785,-1.7768210227586678,-1.432349563401658
0.265625,-0.27415094905336446,0.279122559732059,-0.04953592380729788,-0.8557632895644929,-0.8316034723065968,-0.45994349306965887,-1.7693176914690412,-1.4626663187300437
0.26953125,-0.23606276045029517,0.3309684188934625,-0.03802069770131311,-0.875229943630984,-0.7959781669342192,-0.45468240728041565,-1.7496200825917185,-1.4931648593119462
0.2734375,-0.18177918548190064,0.4025999089662946,-0.022522726794704795,-0.8988694730760471,-0.7467398859262175,-0.45153112182561017,-1.7291121139351162,-1.52730888203223
0.27734375,-0.12386378500650608,0.4722894573205849,-0.018001736989958772,-0.9356456303066807,-0.7022567842795979,-0.4621801110715751,-1.7213703813467873,-1.5702491964475485
0.28125,-0.07692285919347341,0.5164787921785319,-0.039388577732779595,-0.992469722405076,-0.6819897180321277,-0.49682597591527156,-1.7371510239172494,-1.626076709726476
0.28515625,-0.05298410954424071,0.5167785275261849,-0.09692907809721873,-1.0704560509111616,-0.700413750109874,-0.5606393074231164,-1.780143520591082,-1.6952348005361273
0.2890625,-0.0576316558920098,0.46555985022678215,-0.19268460960120137,-1.1631822189883678,-0.7622522844030755,-0.6516408461720857,-1.84500754585315,-1.7731948673826992
0.29296875,-0.08825719532978837,0.36826534710598935,-0.3193964914771641,-1.2577201005115057,-0.860632383137272,-0.7607424663547135,-1.9184001303074183,-1.851018510024005
0.296875,-0.1350096425767333,0.2417061750747962,-0.4621372227120446,-1.338120114269259,-0.9787781891645864,-0.8739554573367059,-1.982648427656386,-1.9176709429302718
0.30078125,-0.1840338796910146,0.10901467106805285,-0.6022132765792776,-1.3900639714847784,-1.094643494070624,-0.9760084367371746,-2.0208001387800323,-1.963220483958139
0.3046875,-0.2217791177372419,-0.006956552667247706,-0.7220204452096368,-1.404954559802718,-1.1869019544974435,-1.0541489245952107,-2.021345835601096,-1.9816818621620769
0.30859375,-0.23884004463070596,-0.08957417918509236,-0.809275150004396,-1.381972879244131,-1.2403293112583924,-1.1009034324160893,-1.9811025140370475,-1.9724059256986948
0.3125,-0.23206609967019176,-0.1318848603659717,-0.8593506777287985,-1.3274868706503185,-1.2489558685047086,-1.1150236787216272,-1.9054709810006898,-1.939524963745498
0.31640625,-0.20439539127892203,-0.1367910869021216,-0.875185037330084,-1.2522638144218945,-1.2162569191787043,-1.1005456599377794,-1.806221916922368,-1.8897818563345936
0.3203125,-0.16272842628950457,-0.11432982915948742,-0.8650951031086151,-1.1677479960781056,-1.1527158676472027,-1.0645416068655322,-1.6977654695438105,-1.8297200767847244
0.32421875,-0.1148145543083956,-0.07735582130408147,-0.8394784458687354,-1.0828892982317484,-1.0719074907683535,-1.0145148507945123,-1.5932222368064686,-1.7634356481721625
0.328125,-0.0663498198605339,-0.037262427809992005,-0.8076017934399715,-1.0025837582361419,-0.9865389074548148,-0.9563473213347606,-1.501466499576054,-1.6917667835514294
0.33203125,-0.019245717908233928,-0.0010803641314893753,-0.7754287594252673,-0.9279603432332806,-0.9056185490408097,-0.8933469644034631,-1.4257842622100725,-1.6131185702761286
0.3359375,0.028524381079364503,0.02941530574673834,-0.7449082772836846,-0.857915836149914,-0.8332946208611247,-0.826434927603259,-1.3641628129335004,-1.5253757510436117
0.33984375,0.08170194121248642,0.05675289926898586,-0.714577197413746,-0.7908627139840974,-0.7692455596952641,-0.7550884220108856,-1.3107486438457272,-1.4279119113780325
0.34375,0.1457699312368277,0.08569826093207666,-0.6809584647271549,-0.7257647780534171,-0.7100632046785904,-0.6784768515899486,-1.2578436781041091,-1.3227228237155941
0.34765625,0.22497991380987514,0.12099300761292398,-0.6401483005902264,-0.6620956582992221,-0.6509670811283286,-0.5963112243989599,-1.1978962675129878,-1.2141863408032805
0.3515625,0.3209768522083323,0.16564277416364348,-0.5891383239031711,-0.5990353884044453,-0.5873524742128211,-0.5091869752504863,-1.1251576097492944,-1.1076164128098753
0.35546875,0.43231531776655174,0.22012868328147306,-0.5266611537990684,-0.5346591365196218,-0.5159317879588343,-0.4184799138329254,-1.036844082591415,-1.0073249541164842
0.359375,0.554849862055562,0.28253003847567015,-0.4535545201633795,-0.4658538159674208,-0.43542615912883775,-0.326028839481296,-0.933711817197036,-0.915090424769005
0.36328125,0.6827590368629899,0.3492819189432339,-0.37272764075169107,-0.3892549784723087,-0.3468373961368343,-0.23385614156268275,-0.8199535272979119,-0.8296852911371388
0.3671875,0.8098489843177958,0.4161899767041177,-0.2888129699840647,-0.3028848141184426,-0.2533188308007084,-0.144068792451435,-0.7023653552096221,-0.7476067480638449
0.37109375,0.9307664754487632,0.47935975544532994,-0.20755790330895252,-0.20771946651620965,-0.15965356681135745,-0.05892993470979491,-0.5888737746317929,-0.6646241104135697
0.375,1.0418093552289065,0.5358095336305269,-0.13501050943887094,-0.10836090780230734,-0.0714010610636251,0.01902517254848135,-0.48672262664695154,-0.5774671762992512
0.37890625,1.141149596151081,0.5836785703650094,-0.07659657796921238,-0.012358642997867264,0.006126728457900299,0.0869905179001762,-0.4007956420082337,-0.48501016181035084
0.3828125,1.2284648391869268,0.6220786303856585,-0.036238549938616416,0.0716722112770185,0.06881354153165375,0.1421211379692977,-0.33257751397286484,-0.38860412132635247
0.38671875,1.3041751572018256,0.6507435728053679,-0.01568718843714123,0.13645572494169755,0.11437052904739176,0.18200820761649084,-0.28008309982396895,-0.29158323400224617
0.390625,1.3686328657058766,0.6696882337564602,-0.014199230236044968,0.1780906018211681,0.1425240299113284,0.20530499966753268,-0.23876640398157178,-0.1982434270075828
0.39453125,1.4216449244486284,0.6790691600144783,-0.028609678182078824,0.19701523967796675,0.15480684112390009,0.21234158964489325,-0.20307665238306072,-0.1126721826949506
0.3984375,1.4625782114308095,0.6793474085498019,-0.05375487432957016,0.1976750638732483,0.1541434215823756,0.20555182800308103,-0.16810039937809051,-0.03773431700437868
0.40234375,1.4910477830198943,0.6717085625496111,-0.08314263055808624,0.18717487648700626,0.14445116391925694,0.1895710823873742,-0.13070638260614942,0.025615584320348717
0.40625,1.5078970818649395,0.658542376186233,-0.10975777087196548,0.17351067072013393,0.13038008717103367,0.17092624204906315,-0.08981400156926611,0.07861959261390439
0.41015625,1.5159890836002887,0.6436986836888536,-0.12692046880147245,0.163982690537523,0.11714475789403878,0.15731021107967535,-0.04576277845558252,0.1245674354777293
0.4140625,1.5203348766590352,0.6322615035969648,-0.1291416111826038,0.16415437187333737,0.11026887847265243,0.15650563511826476,0.000860818361037019,0.16820288806229655
0.41796875,1.5273138842530898,0.6297433969848498,-0.11290968160437842,0.1774079265715045,0.11506089236945627,0.17510116379071405,0.05034058503383676,0.2147427693444115
0.421875,1.5431201063620392,0.6408400281543436,-0.07729287432312049,0.20492612406997068,0.135784674171191,0.21722445353589137,0.1043068209582998,0.26868488589570916
0.42578125,1.5719300563432625,0.6681129320895707,-0.024188198111119164,0.24587760094618716,0.1747108342442516,0.28357345627227915,0.16527518198472535,0.33270018207076646
0.4296875,1.6144667824846692,0.7110639899110538,0.041942858075572076,0.29766653142360155,0.2313997242708865,0.37101938232808607,0.23540648896869243,0.4069381134286232
0.43359375,1.6675317056069616,0.7659692755623837,0.11490576667938512,0.3562263657386211,0.3025661499123089,0.4729496083655249,0.3150590259792807,0.4889723754786246
0.4375,1.7247191408387152,0.8265810151897313,0.18803696377744927,0.41640547010501905,0.3826854708677274,0.580334472033428,0.40186546357290354,0.5743985980188882
0.44140625,1.7780778307496803,0.885487281720998,0.25557935146025557,0.4724875282136054,0.46520773366864887,0.6832963777014811,0.4908746973342204,0.6578676448043552
0.4453125,1.8201429838882177,0.9356971304441686,0.31376541187455587,0.5188423415347643,0.5439973733700754,0.7728224886704993,0.5758245720244304,0.7342049457292887
0.44921875,1.8456734096616856,0.9719773288452416,0.36128520264355757,0.5506593083737243,0.6145369866317196,0.8422399560004123,0.6510812227134011,0.7992937298695324
0.453125,1.8526064877733006,0.99161377420387,0.3990354002780805,0.5646889462695981,0.6745503355887195,0.888166255208489,0.713444364919269,0.8505541586600884
0.45703125,1.8420814740238711,0.9945086958396132,0.4293035260616307,0.5598959660346736,0.723943458069698,0.9107965297516785,0.7630491722920851,0.8870379701875208
0.4609375,1.8177073570768698,0.9827441544985049,0.4547204071059241,0.5378934133659641,0.7642058790224837,0.9135368941315392,0.8029753075788904,0.9092847221836564
0.46484375,1.7844424746726872,0.9598574024494155,0.4773491468768043,0.5029995122640685,0.7975625635481265,0.9021057962854684,0.8377327276321012,0.9190942478198849
0.46875,1.7474782225690433,0.930078442706872,0.4981791335012531,0.46177987655937613,0.8261823154498416,0.8833017659526377,0.8712780186215241,0.9192913239530753
0.47265625,1.7114066395151895,0.8977067409432493,0.5171217480892665,0.42203441807942,0.8516630600752251,0.8636922075311304,0.9054090810423077,0.9134596439253073
0.4765625,1.679788283581729,0.8666999633533123,0.5334348998076166,0.3913558543899853,0.8748801292313146,0.8484933005092898,0.939208632644295,0.9055696637005894
0.48046875,1.6550774262213963,0.840444045024924,0.5463722345666611,0.3755531281512958,0.8961408184404718,0.8408691201111651,0.9697309906187002,0.8994475138024427
0.484375,1.638736534914642,0.8215922093768313,0.5557841404879582,0.3773216405988933,0.915471048301697,0.8417540016125713,0.9935665730154142,0.8981117503026326
0.48828125,1.6313223341057892,0.811823440471926,0.5623944616672816,0.3955042018333188,0.9328020951215876,0.8501325510223978,1.0085143458127277,0.9030976571011706
0.4921875,1.6323571117027313,0.8114197385111765,0.5675628358403628,0.4251368466157146,0.9478609399593552,0.8635677772872441,1.0145404303329997,0.9139480425801594
0.49609375,1.6399416153944912,0.8187017783711781,0.5725345886276045,0.4582891222071339,0.9597270036465488,0.878731839293323,1.013544647321396,0.9280613539885962
0.5,1.65027904586168,0.8295605766761582,0.5774342071163119,0.4855574502471427,0.9662538786869845,0.8917984359868569,1.0080501624543103,0.9410424581801635
0.50390625,1.6574605297137168,0.8374699405067076,0.5804777174489573,0.4979853542863566,0.9637584525989951,0.8987398700810445,0.9995111440730398,0.9476062814428587
0.5078125,1.653908384469105,0.8343348554262775,0.5779245384474052,0.48912721695160144,0.9474114222030039,0.8957169370660267,0.9871819202089682,0.9429408578398579
0.51171875,1.6316760138579411,0.8122635790641652,0.5650622938446759,0.4568955205286329,0.9125240580942773,0.8797356940704049,0.9682728432380827,0.9242593819180911
0.515625,1.5844187828406575,0.765904644595139,0.5380618404160487,0.4047275297125452,0.8564806535105163,0.8495501901961688,0.9394664743922476,0.8921117569116177
0.51953125,1.5094225318534882,0.6945709287720092,0.4960357387062686,0.3415609910462081,0.7806007147337368,0.8065034080573241,0.8991220852294646,0.8509497320119408
0.5234375,1.4088551552049466,0.6032158239577257,0.4423543771281402,0.2802447625072091,0.6910078127475572,0.7548119924649654,0.8490201253152918,0.8085381750788656
0.52734375,1.2895562804260408,0.501602244185051,0.3844218383619591,0.23441479868324677,0.5978097874503874,0.7008686111475981,0.794597895037441,0.7741060130683763
0.53125,1.1612042953856871,0.4016577861420956,0.33169422408718674,0.21447115727823984,0.5125383495396818,0.6515001587104052,0.7432992106259917,0.7555806860182201
0.53515625,1.0333980071663973,0.3138023600968154,0.292517881916865,0.22386116427242087,0.4445996921731421,0.6116478061812813,0.7016087693045847,0.7566940212200279
0.5390625,0.9127292059929459,0.24358465111617988,0.2709943487388955,0.2570922674749454,0.39806795371077897,0.5823530386805942,0.6720937903992308,0.77498253858721
0.54296875,0.8010230772015348,0.18998608197762223,0.26521874474383367,0.3005384030529967,0.3701896957863937,0.5599973178505024,0.6519268822557933,0.8015722983145679
0.546875,0.6954822993066045,0.14616605881201394,0.26776308459375286,0.33618650263633754,0.35237701467849547,0.5373415774556634,0.6337892841656867,0.82311765936538
0.55078125,0.59067673419122,0.10245176440548676,0.26836602273760946,0.34731391451714444,0.33346790928590053,0.5061787646809535,0.6089813382459397,0.8255034913418058
0.5546875,0.48151588316613925,0.050429925124717556,0.2578353246462939,0.3241819115373801,0.30405524853449606,0.46066185177551233,0.5714910571441578,0.7982102374626265
0.55859375,0.36590935792446544,-0.013496652684352739,0.23160629325502669,0.2676239034826722,0.2601733797291672,0.3999652449238056,0.5212011728872312,0.7378739041996596
0.5625,0.24596181447122945,-0.08653505290112662,0.19149418051256362,0.18906322907241702,0.20483926732595137,0.3291042105502129,0.4646610136660456,0.6497461413346173
0.56640625,0.12720910547159292,-0.1605506412261093,0.1449076734161281,0.10680398787599188,0.14679926607641391,0.25744725462573115,0.41284221197201987,0.5464421519718599
0.5703125,0.01627929080427748,-0.22529356158429437,0.10184623278064464,0.03988373009633506,0.09698121772316881,0.19541998597105703,0.3766356826417905,0.4443282080046629
0.57421875,-0.08193840983494738,-0.27246352374277194,0.07092784670703622,0.0017527636009262437,0.0641002273482627,0.15069544190282613,0.36193796404404566,0.3587659591630654
0.578125,-0.16632915844638774,-0.2989490042182297,0.056084978439230326,-0.0038692515857974286,0.051206495044198164,0.1254236110526108,0.36650445167651924,0.2998525303610222
0.58203125,-0.23988641828509571,-0.3079582597820263,0.05525414081830604,0.016531055635482517,0.05454843332586279,0.11563560065042111,0.3801178252160753,0.2700816139622475
0.5859375,-0.3082274986354605,-0.30767040470891516,0.061510021964750194,0.04948502052570802,0.06513518968631615,0.11303336577839218,0.3882491910189856,0.2645885217589239
0.58984375,-0.37700405641771795,-0.30807103712504613,0.0660495587112564,0.08004575136055792,0.07224996778631976,0.10835341868187243,0.37785321183037013,0.2736470321451634
0.59375,-0.4494067411542346,-0.31734430194774177,0.061679166662997886,0.0973069376186686,0.0673814710694387,0.09483716212344007,0.34291653605578176,0.2862812493731326
0.59765625,-0.5248795105217141,-0.3392791541045881,0.045324320296913356,0.09777551923662031,0.046939941711343636,0.07034885385337475,0.2873567552796885,0.2935643976798019
0.6015625,-0.5995616447762586,-0.3726057684616535,0.018600525564238524,0.08542075846662556,0.012733648802054631,0.0373439590362068,0.2238973735302352,0.2904914140344772
0.60546875,-0.668161817429791,-0.41229139924325864,-0.013606316962011533,0.06864581081345023,-0.0297906943558246,0.0008849570520830241,0.16920405698783725,0.27603866215031303
0.609375,-0.7263371344379266,-0.4520149161635345,-0.04573736944735174,0.05567850891452508,-0.07457089878926126,-0.034240859037026894,0.13714951307974843,0.2518097232950822
0.61328125,-0.772495923229144,-0.4866625999966345,-0.07409072111386195,0.0504387500654957,-0.11776677411035053,-0.0659183214679615,0.1328929641886134,0.22015865397406742
0.6171875,-0.8083033549155516,-0.5138674055160664,-0.0982001822080747,0.05060859109562443,-0.15917113671548577,-0.0955576879846376,0.1501686597293883,0.18270668533659773
0.62109375,-0.837832033084851,-0.5341945552572724,-0.12060748133535526,0.048596085377994314,-0.20170719494672085,-0.12713360320049105,0.1729047909293513,0.13978569768369198
0.625,-0.8659117725073884,-0.5502308226823516,-0.14533326009313896,0.03482339749893981,-0.24943742005234526,-0.16499211596965324,0.18058602790915756,0.09079683138679684
0.62890625,-0.896506207936909,-0.5652436243508419,-0.1758842813615047,0.001829912776862841,-0.3051453347779898,-0.21152793294731964,0.15533471753315098,0.03504812440269234
0.6328125,-0.9317859621660318,-0.5820859882987861,-0.21372478897774272,-0.05256201873748978,-0.36864102526124043,-0.26580934786579746,0.08808333262777523,-0.02748564220667049
0.63671875,-0.9721239848659025,-0.6027094059390947,-0.2578072155756672,-0.12426436057921819,-0.43649762915265455,-0.3237197461203323,-0.018357852127337537,-0.09584977789245386
0.640625,-1.0167578921027598,-0.6282280651248584,-0.3052077204301895,-0.2043800293449749,-0.5032113108427438,-0.3794668543832813,-0.15029219468942756,-0.16826656690227537
0.64453125,-1.0645967449818272,-0.6591976102754415,-0.3524221767747804,-0.2823340707891475,-0.5631462727251346,-0.4277207210634515,-0.2876139149066148,-0.24249231955764117
0.6484375,-1.1146870519951335,-0.6957425853215682,-0.39665042095293757,-0.3492891949008481,-0.612351186646265,-0.46542402287741425,-0.40998097006195167,-0.31601993555341323
0.65234375,-1.1661252301564673,-0.737359982849739,-0.43649080794239126,-0.4004565141713101,-0.6494838657999935,-0.49252645339947776,-0.5024239158046839,-0.38592580153817835
0.65625,-1.2175498795841122,-0.7824972385606088,-0.47179730700008804,-0.4354911880000145,-0.6755374784006563,-0.5113993779559678,-0.5585288818110712,-0.44845242541668995
0.66015625,-1.2665858548643882,-0.8281907639684505,-0.5028514351579361,-0.45703754381065664,-0.6925939715074492,-0.5252539381217503,-0.5803878480037383,-0.4986763428860286
0.6640625,-1.3096499742459855,-0.8700745866008219,-0.52930516858396,-0.46827386768200085,-0.7022210866125533,-0.5362850856727164,-0.5757702865594183,-0.5306868047227908
0.66796875,-1.342365635537135,-0.9029237162394566,-0.5494413244377938,-0.4706772926965641,-0.704240278537327,-0.5443504278446198,-0.5539488938666182,-0.5385315944295144
0.671875,-1.3605543927042163,-0.9216689704771852,-0.5601595489679312,-0.4630507817182661,-0.6964130534470314,-0.5467549613058509,-0.5219470722295227,-0.5178346782486187
0.67578125,-1.361500721941411,-0.9226060910805245,-0.5577803676715121,-0.442225598362711,-0.6752065928594675,-0.5392552679950313,-0.4825956239074003,-0.4676165588080039
0.6796875,-1.3450248843582813,-0.9044111948242062,-0.5394026629801374,-0.40506793652639317,-0.6373583119057002,-0.5179032882551837,-0.4348975721768511,-0.3916211426258087
0.68359375,-1.3139245993443183,-0.8686112664690882,-0.5042942348154611,-0.3508223755943618,-0.581635163143801,-0.48101315996973426,-0.3762142739560659,-0.29850758664906607
0.6875,-1.2735553127640742,-0.8193324561034387,-0.45475354681911995,-0.2826863010341185,-0.5101077249491937,-0.43047907638538163,-0.3051116834740242,-0.20060322469817038
0.69140625,-1.23064023682673,-0.7624067848155391,-0.39608428892279335,-0.20787409482636576,-0.42845618963838206,-0.3719281096437044,-0.22358922535659076,-0.11143178113570684
0.6953125,-1.191715341519739,-0.7041545586616849,-0.33567937407497084,-0.13612267935059208,-0.3452165628914372,-0.3136417490168242,-0.13783426311420044,-0.04272174791708494
0.69921875,-1.16177000109019,-0.6502743872260908,-0.2815610855577688,-0.07727438600113601,-0.27027311944038956,-0.2646451946475281,-0.057341164705349,-0.0018555937897346553
0.703125,-1.1435694204919855,-0.6052007961443451,-0.24090221018013835,-0.038929407253363024,-0.21313330478278658,-0.23264546200607583,0.007129086210255764,0.009390380029117296
0.70703125,-1.1378332374079037,-0.5720474973713863,-0.21897746194099454,-0.02503618290461418,-0.18148540448237327,-0.22248902098453982,0.04595467473222925,-0.005574980921352335
0.7109375,-1.1440554317232454,-0.5529525424208259,-0.21872770616937487,-0.03577962459644368,-0.1802930995609131,-0.23553609196369507,0.052681635054341314,-0.04002157183435884
0.71484375,-1.161447357844736,-0.5494373453984736,-0.2408110049145762,-0.06851470857327513,-0.21138602335213363,-0.2699520393889543,0.025228468203408738,-0.08643154103538109
0.71875,-1.1894535418832675,-0.5623948027277947,-0.28383959715938545,-0.11908903019275385,-0.2733352744144213,-0.3215894537333952,-0.03384552726970469,-0.13872147519577993
0.72265625,-1.2275349945412017,-0.5915589440519398,-0.3445434231252875,-0.18287916248027614,-0.3614419767927757,-0.3850122709536663,-0.11789301623821302,-0.19337781509420893
0.7265625,-1.2743356592181954,-0.6346563168335706,-0.4178086783213075,-0.25518832558191207,-0.4678546758896118,-0.4543163072412426,-0.21734457789079897,-0.2492442376933468
0.73046875,-1.3267185750009958,-0.6867164188406605,-0.4967696440871805,-0.3310990166482952,-0.5820147634949535,-0.523634014371055,-0.32125689131135005,-0.3062780535856291
0.734375,-1.379283730784664,-0.7400673780466605,-0.573226998312748,-0.40518563082514447,-0.6916582719895814,-0.5874262569705024,-0.4189882076843787,-0.3639757721884962
0.73828125,-1.4247964372771094,-0.7853152510506334,-0.6385617439264024,-0.4715221564310923,-0.784431279043929,-0.6407510113604076,-0.5017129183215729,-0.42021412127724034
0.7421875,-1.455548158446618,-0.8131982554004935,-0.6850705176475458,-0.5241973894953844,-0.8498926717948052,-0.67963691208206,-0.5634978492707887,-0.4709909831035475
0.74609375,-1.4652509889856447,-0.8168125305019203,-0.7074016252772708,-0.5582433004747145,-0.8814347438601544,-0.7015520964159805,-0.6017695568516501,-0.5111478458275087
0.75,-1.4508157164527802,-0.7935002486192388,-0.7036645115476858,-0.5706704655494832,-0.8775905371294357,-0.7058415576466359,-0.6171873678795237,-0.5357989039111999
0.75390625,-1.4133898957879865,-0.7457592801074497,-0.6758620543223515,-0.5612760674011952,-0.8423450026384671,-0.6939720833543106,-0.6131137411102827,-0.5419951207841223
0.7578125,-1.3582815654444858,-0.6808374450884003,-0.6295093726293999,-0.5330005592441012,-0.7843490834602562,-0.6694712624266685,-0.5949310661890195,-0.5301149599290511
0.76171875,-1.2937632618559292,-0.6090773467803956,-0.5725399319089775,-0.4917513365398918,-0.7152276566557703,-0.6375195198415895,-0.5693553930541384,-0.504541731061181
0.765625,-1.229068402608391,-0.5414381689661241,-0.5137615630701475,-0.4456917963580054,-0.6473638904935797,-0.6042097879799257,-0.5437158279164578,-0.47331681685136573
0.76953125,-1.1721017472154927,-0.4868282985626138,-0.46117759211483644,-0.4040183512188378,-0.5916019176765985,-0.5755230745307927,-0.5250365120446077,-0.4466505743039306
0.7734375,-1.1274403277639067,-0.44991659819970664,-0.4204636070426204,-0.3752866746253858,-0.5552720381274412,-0.556111729110853,-0.5188014142731845,-0.43446061681606807
0.77734375,-1.0951231388389715,-0.42995935700673726,-0.39384056549351953,-0.36547467630043684,-0.540858707154257,-0.5480673053170904,-0.527507097558555,-0.4434622269400279
0.78125,-1.0705560953283566,-0.42094160335182096,-0.37954364984216227,-0.37617377302012756,-0.5455346467897471,-0.5499622375282343,-0.5494018751051044,-0.47464351382586756
0.78515625,-1.0455974006617907,-0.41302365616502357,-0.3720412280472374,-0.403476946075898,-0.5616802241092955,-0.5565251512962277,-0.5779988327958563,-0.5220492766966345
0.7890625,-1.0105999308507307,-0.39497507486885297,-0.3630741787219449,-0.43813270167447627,-0.5783696224170853,-0.5592623324446322,-0.6028813004377298,-0.5735388413086184
0.79296875,-0.9569226904204697,-0.3570261810637021,-0.3434354880482715,-0.46726793812013057,-0.5836328682562453,-0.5481284688357846,-0.611968914654426,-0.613593044818117
0.796875,-0.8792718517725007,-0.2934470728632732,-0.3052120121083135,-0.4774886974701076,-0.5671153644470905,-0.5140148005011724,-0.5948759849161434,-0.6275137138800346
0.80078125,-0.7772562184982235,-0.20421239810275438,-0.24401447262789588,-0.458618245602338,-0.5226005441727466,-0.45147771743359044,-0.5464745527206105,-0.6057761083866353
0.8046875,-0.6557456231348624,-0.09532790556932014,-0.16061270002865058,-0.40696181713428814,-0.4498043892908754,-0.360915436203868,-0.46948909471211664,-0.547127342542808
0.80859375,-0.5239471647655591,0.02227720585779025,-0.061438790055490244,-0.3269834678576444,-0.3549324389950925,-0.24943076937233855,-0.37506248418139876,-0.4593663049945462
0.8125,-0.3934600556476653,0.13503519369351125,0.042349221018866956,-0.23069068788572622,-0.2497332332040969,-0.12992710196613189,-0.2807603891596955,-0.3574871243472444
0.81640625,-0.27582461825659266,0.22965997459323262,0.1371677171846386,-0.134736865220475,-0.14914002122168313,-0.018500047715974688,-0.20629961738904967,-0.25973798756240285
0.8203125,-0.1801820417313138,0.2960108531624428,0.2101666325415863,-0.05602519692615715,-0.06798541818398007,0.06925365170218356,-0.16811877401323727,-0.18282601388364128
0.82421875,-0.11159418988881953,0.3292234964646923,0.25240782974833564,-0.007152609171612312,-0.01757911860522654,0.12198296417409438,-0.17444966715629562,-0.13775060381249205
0.828125,-0.0703807359059283,0.3306029725536064,0.2611247111872217,0.006844912636694289,-0.0030479181400977495,0.13526830855425942,-0.22255015608152462,-0.12750201960898266
0.83203125,-0.05257187751794845,0.3070645959724061,0.2403339749434963,-0.010632316360670302,-0.022191382953451466,0.11241473174550265,-0.29916799348939094,-0.14722778018949612
0.8359375,-0.05131209945830051,0.26925491170004534,0.19955086827394553,-0.04954640786536402,-0.0662196057987785,0.06310689570909744,-0.3842813498522446,-0.18666770529307541
0.83984375,-0.058834149996300766,0.22881916095229826,0.15096335914677184,-0.0970640741115858,-0.12221190104355628,0.00037353745097057356,-0.4570507030621229,-0.23395354276090075
0.84375,-0.06849199252201288,0.19551350760593778,0.10593808497105783,-0.1420762600901071,-0.17662360107806307,-0.06313456424322794,-0.502117188716511,-0.2794769500269467
0.84765625,-0.07633054366351644,0.17492230597326852,0.07196489093530545,-0.1787720833590356,-0.21883977296965895,-0.1183393152359713,-0.5142016448189679,-0.31856615123615484
0.8515625,-0.08179419097587015,0.16739075192617747,0.05099790456597475,-0.20799188860110007,-0.24374847384933673,-0.1614105684666356,-0.4994877826902666,-0.35215842331126623
0.85546875,-0.08741768908748782,0.16844506944835302,0.03966397699173285,-0.23593102582708525,-0.25260621328015986,-0.19350756019775872,-0.4733392415801063,-0.38536828128599154
0.859375,-0.09763941477558546,0.1705379730765344,0.03115959046340322,-0.27079238407168305,-0.252003189871175,-0.21888678247705684,-0.4551299639388162,-0.4245891602749907
0.86328125,-0.11713046887962264,0.1655671724165586,0.018089167497237213,-0.3187761592471361,-0.2513289416583575,-0.242250621340645,-0.4619159597041289,-0.47427181470993673
0.8671875,-0.14915211465904576,0.14740324161266471,-0.004778418105644278,-0.38101705968074384,-0.25958561877814645,-0.26641993144949083,-0.5030101419833954,-0.5346025773178553
0.87109375,-0.19439627862993802,0.11370342889449603,-0.03875052456692174,-0.4526399948190374,-0.2825489673341508,-0.2911871774813335,-0.5771416340394353,-0.6009183834976284
0.875,-0.2505658471818606,0.0665519266362935,-0.08093974201983656,-0.524203699114878,-0.3211020214166638,-0.3136595125852182,-0.6729629262736125,-0.6649992201346322
0.87890625,-0.31270946010408807,0.011842269387329907,-0.12542085414679605,-0.5848469868396933,-0.37114745055077947,-0.32978471153910505,-0.7725648742962221,-0.717656007509504
0.8828125,-0.37414000075841614,-0.042334626471074444,-0.16529715196611505,-0.6258513849388692,-0.42500496988395753,-0.33632915119596873,-0.856767428558669,-0.7515955076087266
0.88671875,-0.4276872687114519,-0.08781445615113626,-0.19494112279971887,-0.643316695914109,-0.47378293288602435,-0.3324989563679992,-0.9105260687647387,-0.7635553629370406
0.890625,-0.4670386601901555,-0.11844760194890114,-0.2117265296419646,-0.6391435931618616,-0.5099832947053073,-0.32063982757790654,-0.9269039651371713,-0.7551140583927918
0.89453125,-0.4879472612628888,-0.13165619350274937,-0.21680361328435538,-0.6202387794473907,-0.5295892151480075,-0.30585482591050095,-0.9085913461603923,-0.7321469297494332
0.8984375,-0.48908589178608963,-0.12908867574878968,-0.21476691358657263,-0.596459017287998,-0.5330607564246748,-0.29474358598235995,-0.8667011002216896,-0.7033323754512821
0.90234375,-0.4723185327293322,-0.11617355966109244,-0.21233365998796216,-0.5780615879302786,-0.5249744958746305,-0.29366913167905295,-0.8173191190508078,-0.6782437935726193
0.90625,-0.44221235384611646,-0.10060250588139752,-0.21635953828536003,-0.573333579723112,-0.5124164772496442,-0.3069917795528454,-0.7768629757265444,-0.6654258868366014
0.91015625,-0.40477607399225235,-0.09005291445873809,-0.23167280005509383,-0.5868018320143165,-0.5025971745453717,-0.33565424928383436,-0.7575761742373288,-0.6706486033181136
0.9140625,-0.3656817000319279,-0.08973754717089832,-0.25930089009307267,-0.6181901426316472,-0.5004116019335925,-0.37643624750671734,-0.7644018751307158,-0.6954586524443584
0.91796875,-0.3284939680270327,-0.10053713594970759,-0.295652625936782,-0.6622025239266804,-0.5067251436230436,-0.42213412143610185,-0.7940453201626951,-0.7362579594882845
0.921875,-0.29355553010645963,-0.11841447644656,-0.33304846169812663,-0.7092333476066415,-0.51798281219817,-0.4628070939816098,-0.8363786605514179,-0.7843109415262006
0.92578125,-0.2580428883902641,-0.13547597177421267,-0.36164320249554294,-0.7470885634575097,-0.5273364536151348,-0.48800677632243605,-0.8776523259257374,-0.827084647880838
0.9296875,-0.21731975152761152,-0.14250613844524196,-0.37232865679470706,-0.763629543598654,-0.5269880034575181,-0.4895792358183826,-0.9044840112437669,-0.8510124871463631
0.93359375,-0.1672058687063327,-0.13223733219547285,-0.3597957061174384,-0.7499126581933524,-0.5110143206366047,-0.4643081013000483,-0.907450839804369,-0.8451991675428872
0.9375,-0.10635950076220979,-0.10226149527170492,-0.3247529889449652,-0.7030409392427828,-0.47774358336027944,-0.4155233455094276,-0.8833368383420748,-0.8050141673265898
0.94140625,-0.037835039989886354,-0.05651545009754955,-0.2744639857610309,-0.6277841748669744,-0.4308686527565442,-0.352970374706274,-0.835571654533851,-0.7342814001276565
0.9453125,0.030889491853258733,-0.004705063005872034,-0.22126050680526532,-0.5362198294278642,-0.37888281667619594,-0.290725495233346,-0.7729518074484076,-0.6450729870266514
0.94921875,0.08958819819326891,0.04026730238138043,-0.17935816742919997,-0.44521314634948794,-0.3329700177800987,-0.24360801376133168,-0.7071771506161895,-0.5549001684812538
0.953125,0.12820621009268507,0.06610073199908584,-0.16089516918782465,-0.37229685290185444,-0.3039809826077544,-0.22311321856705035,-0.6499590767816699,-0.4820531671612116
0.95703125,0.14007621018663485,0.06490467541198086,-0.1724073968034645,-0.33112897313003486,-0.2994095211761305,-0.23412715677295637,-0.6104370413595461,-0.4405565903198294
0.9609375,0.12434109919468028,0.035789749830428264,-0.21282612294726277,-0.32792428328320966,-0.32125831239682157,-0.27346294473318267,-0.5934458613410243,-0.43636066493490944
0.96484375,0.08674151530385643,-0.01457937681692556,-0.27359126875126094,-0.3599580224999954,-0.36537804248837347,-0.33066166338358016,-0.5988861744299356,-0.46592245439569524
0.96875,0.03847062401973744,-0.07362283582779128,-0.34080480304510274,-0.4165445091075526,-0.4224074245939846,-0.390765677593663,-0.6221733883648994,-0.5174749162506487
0.97265625,-0.006574459199271132,-0.12615824118711316,-0.39875547486190044,-0.4820893195756071,-0.4799995849680272,-0.4381894029847899,-0.6555407026098692,-0.574412126752577
0.9765625,-0.03533333625682644,-0.15841567346797092,-0.4338187977737107,-0.5402175133895071,-0.5257318207441131,-0.4605782635280775,-0.6898713991176919,-0.6196740969244274
0.98046875,-0.038914624411745535,-0.16166099214842689,-0.43774315372502315,-0.5777883416158147,-0.550008905975119,-0.4516942624377407,-0.7167222406678775,-0.6399311587301781
0.984375,-0.014843140050402326,-0.1345202633729059,-0.40959983493848995,-0.5878107458556769,-0.5483433369590784,-0.4127606132442452,-0.7302071480808081,-0.6286430789259612
0.98828125,0.03231123812952319,-0.08347839042244232,-0.3560548123004992,-0.5707024683943018,-0.5225508061812434,-0.35214057447774394,-0.7284056096068525,-0.5874842941011593
0.9921875,0.0920331615361647,-0.02146439115335852,-0.28998144330216746,-0.5337831225915579,-0.48057444246296654,-0.28355700010251894,-0.7139491913221718,-0.5259806812318857
0.99609375,0.15041317169561808,0.03515862800895775,-0.22771148167066713,-0.48922248652161215,-0.4348537174792,-0.2232374072264065,-0.6934914154044236,-0.45944634052830224
1.0,0.1935794387009082,0.0705525948774266,-0.18543353519362427,-0.45089018385624513,-0.3994215092006925,-0.18645616250978492,-0.6759649977539084,-0.4055171132222313
