time,Fz,Cz,Pz,Oz,P3,P4,PO7,PO8
-0.19921875,0.13310103597063971,0.14571094553161856,0.1141352825584363,0.08965897535517797,0.09682259261012405,0.09417267321509826,0.07963240022945683,0.08701287779189215
-0.1953125,0.09008170209767741,0.09523403043942835,0.08232156289977866,0.07732470841403938,0.07779958721698677,0.07454777772863963,0.08190473455016445,0.08685954000497986
-0.19140625,0.059543715735799196,0.060075249663782415,0.05872788833016784,0.06525645268595781,0.061853620891838546,0.05846480632953899,0.07794314860198881,0.08118406258361688
-0.1875,0.045559168881936785,0.045014873606419314,0.04636222961096337,0.05461050989197247,0.050777089199982584,0.04777408957323814,0.06751364878265775,0.06998207946473656
-0.18359375,0.04928606323062468,0.05110712919531579,0.04653798768572415,0.04721759871983977,0.046186958257976585,0.043977491870350605,0.05307720329916776,0.05577623385377706
-0.1796875,0.06888785364367322,0.07559183856642449,0.058805392555427716,0.045529938930144453,0.04946720011389516,0.04817228749232072,0.039743734081554294,0.04356569416330558
-0.17578125,0.09986698845665387,0.11242023756352637,0.0809963749404119,0.052055177945931064,0.06142844455325758,0.060773471588504435,0.03414095894882507,0.03971539364044929
-0.171875,0.13579209134917392,0.15334363467900403,0.10940896544298084,0.06840621580295192,0.08177530297359681,0.0810927893724056,0.04242607598570203,0.050011541574690455
-0.16796875,0.16939056735054692,0.18945836011141637,0.13922080022155114,0.09432063663439294,0.10863566402008473,0.10699667640778898,0.06805066288251282,0.07749123653866263
-0.1640625,0.19390578742672915,0.21299421071319102,0.1651984362638359,0.12708488483781366,0.13844942969853946,0.13489851369286043,0.11006516764666685,0.1208258204599133
-0.16015625,0.20449407855949175,0.21900410374087187,0.1826549080874429,0.16168675642802555,0.16640337463513788,0.1602347907692092,0.16262758428808866,0.1739089583452369
-0.15625,0.19932879524731106,0.20653319765528977,0.18845567950620534,0.1917535037421203,0.18737760854037333,0.17837257360042713,0.21599127641991345,0.22690511336520558
-0.15234375,0.18006651458790657,0.17889382775138074,0.18177183136458552,0.21102468750200387,0.19713905530238662,0.18569208393159897,0.2587338818749174,0.26850166534586606
-0.1484375,0.15146280674116497,0.14287919469779808,0.16429934035500082,0.2148928395229177,0.19338854784223258,0.1804838856145352,0.2805557852703089,0.2886815666514053
-0.14453125,0.12017780726125693,0.10706628472689772,0.13981946977992266,0.20151592483586,0.17630536497392768,0.16334914043625304,0.2747917915435494,0.2811641881539373
-0.140625,0.09309216064679049,0.07967006787623632,0.11320815751503233,0.1721701239354445,0.1484185219169376,0.13697416489932834,0.23990614778091057,0.24480347182720408
-0.13671875,0.07563764103935,0.06658103934853443,0.08920708882698136,0.13078945615419002,0.11388210507945473,0.10538080497113356,0.17961148868206323,0.18361257758670035
-0.1328125,0.0706435088204671,0.07015952796507463,0.07134842761047366,0.08290667974364396,0.07742815810729553,0.07292698533944986,0.10170426811839661,0.1055360656643245
-0.12890625,0.07800155366055606,0.08908546234032144,0.06134281171910061,0.034362674483645606,0.04333783021337467,0.04337784798025268,0.016071827424468665,0.02044098401654537
-0.125,0.09514397802945496,0.11918166542557174,0.05903863353751149,-0.009848971416204222,0.01469992128022568,0.019284229324512125,-0.06750762970852975,-0.06205311287033055
-0.12109375,0.11804510791080247,0.15480411263979477,0.06284025033664875,-0.04635248274098558,-0.0069260153168215766,0.0017524399709145655,-0.14119802660417236,-0.1343480882098902
-0.1171875,0.14232105627343117,0.19025630848545916,0.07033517590571137,-0.07368475962721277,-0.021473177014286193,-0.009450396021293272,-0.200190374499698,-0.19188870048481022
-0.11328125,0.16405791569695793,0.2207806133469603,0.07887701514164291,-0.09215469987111646,-0.03007274074207089,-0.015581434809064376,-0.24290929445669462,-0.2333222397510326
-0.109375,0.18019971292915216,0.24294200073882166,0.0859794795360358,-0.10338055744796293,-0.034623084843588,-0.018516828959036502,-0.270442134464588,-0.2599065886954577
-0.10546875,0.18856053429772146,0.25451212337657125,0.08952122243499616,-0.1096446311521504,-0.0373113806517722,-0.02032926715855865,-0.28545954400271967,-0.2744316169867034
-0.1015625,0.18767595832969164,0.25414669124756983,0.08785769978203462,-0.11320810955339766,-0.040142722923519614,-0.02288295775088045,-0.29098289111573195,-0.2799968399358477
-0.09765625,0.17671393237606026,0.24115698948889985,0.07994223949481238,-0.11572412716986946,-0.04452788004982722,-0.027476417585603485,-0.28934880269559926,-0.2789823803084346
-0.09375,0.15554864063460627,0.21552551743297954,0.06548633280090144,-0.11786968201477066,-0.050995012657040206,-0.034583393926368444,-0.2816291395646431,-0.2724656447128382
-0.08984375,0.12493822509895836,0.1781107457077269,0.04509739426339365,-0.11927418341883822,-0.05909593170372318,-0.04375850437554618,-0.2676062216266928,-0.2601865158879946
-0.0859375,0.08664107298272938,0.13083717931294814,0.020283941637444514,-0.11875076211254054,-0.0675497275892667,-0.05375607514679359,-0.24622390348838508,-0.24099140105704464
-0.08203125,0.0433061231319698,0.07665323664696189,-0.006755371373401431,-0.11475399475102677,-0.074605665645322,-0.06285715414833248,-0.21629950275325882,-0.21355019974578227
-0.078125,-0.0019208314938623516,0.01915739034075159,-0.033555068057467,-0.10592580501622706,-0.07853636319055113,-0.06933032636879943,-0.17723161116478536,-0.17708514032932499
-0.07421875,-0.04598603564609505,-0.0380296827362514,-0.057913193685088515,-0.09157544739180068,-0.07812773539228601,-0.07190258510814118,-0.12949250634275433,-0.13189592945606066
-0.0703125,-0.08651502447776238,-0.09192805805469106,-0.07836470317101885,-0.07197610862874626,-0.07303311377881982,-0.07011045255467252,-0.07481304198364569,-0.07957719905249405
-0.06640625,-0.12218766198834885,-0.1406473746357051,-0.09444568060956726,-0.04842937784133028,-0.06390737361527954,-0.06444311928532898,-0.01609035660266045,-0.022947595823552547
-0.0625,-0.1527736976925098,-0.18346069907693163,-0.1066713579689349,-0.023117131320304907,-0.05230593558280816,-0.05625582844004384,0.042880492046037944,0.03421623695487597
-0.05859375,-0.1788374746070076,-0.22050205927826028,-0.11625173002016709,0.0011995169302281283,-0.04039467427219279,-0.04749461623987372,0.09775497566977265,0.08754424030144037
-0.0546875,-0.20124319988212847,-0.2522360169621152,-0.12465054766153116,0.02156864553626292,-0.030549351492936694,-0.040310361271167494,0.1440280357201118,0.13248915564645358
-0.05078125,-0.22065205484977923,-0.278924726870855,-0.1331276848759444,0.03527270564518403,-0.024926052333285043,-0.03664694503413557,0.17748032554720794,0.16480047548839138
-0.046875,-0.23718390451676896,-0.30029714537249674,-0.1423896591745688,0.040251272537261684,-0.025071500431295135,-0.03787522473430727,0.19470855505687723,0.18107305166381593
-0.04296875,-0.2503399443298804,-0.3155301371293717,-0.15242456186115305,0.035476709570048115,-0.03162817563406861,-0.04452810742350266,0.19371633541709343,0.1793414519113412
-0.0390625,-0.2591863861312049,-0.32352848577943405,-0.16254112011893085,0.02121906561569631,-0.044181440728152666,-0.05617814480274319,0.17445821676176365,0.15961285626531208
-0.03515625,-0.2627188457893226,-0.32338948940946466,-0.17158277643147812,-0.0008766107839619508,-0.061286669961191365,-0.07148553038405225,0.13916499419508455,0.12417142158938077
-0.03125,-0.2602816273622466,-0.31488449891980963,-0.1782529395200072,-0.027960851411990006,-0.08069175549962893,-0.08842218335303187,0.09228089759005798,0.07749192221240264
-0.02734375,-0.25191063812712855,-0.2987949514476895,-0.1814687333734355,-0.05640579558985337,-0.09973039993838029,-0.10464107802476974,0.03993039854321978,0.025688002835977386
-0.0234375,-0.2384979551628419,-0.2769904983157545,-0.18065478091244813,-0.08241716331625071,-0.11581118819492531,-0.11791815257566896,-0.011023625123840475,-0.024437547097022616
-0.01953125,-0.2217278378680021,-0.2522161635098996,-0.17590272705092502,-0.10269401151674629,-0.12688928840987046,-0.12656368397756523,-0.054124512871567276,-0.06653218775909409
-0.015625,-0.2038016084782157,-0.2276430102199356,-0.1679578041091645,-0.11497303731289321,-0.1318041995546082,-0.12970156859637427,-0.08438494525364604,-0.09573972903353933
-0.01171875,-0.18703292781196978,-0.20630896990780911,-0.15804607400582427,-0.1183272999583096,-0.13040658330965016,-0.12735418408738042,-0.09900646880112163,-0.10939600336712374
-0.0078125,-0.17343753455634214,-0.19061245737361787,-0.14760822253379047,-0.11317085224504808,-0.12346696109943878,-0.12033461516125499,-0.09760676800141255,-0.10723276488988631
-0.00390625,-0.1644427367608614,-0.1820051540590839,-0.13803459353312064,-0.10101085479163885,-0.11242592989901823,-0.11000722111020877,-0.08195816914025045,-0.09110014964619495
0.0,-0.1607942312631394,-0.18095823595132288,-0.13048267710757955,-0.08404838425235539,-0.0990783330934164,-0.09800316469465997,-0.05536558944641001,-0.06434033039681708
0.00390625,-0.16265465863085637,-0.18717376204513414,-0.12580627073432993,-0.06473542191187676,-0.0852694195252468,-0.08595921086040903,-0.02186835512674179,-0.03099597911671026
0.0078125,-0.16980528272370066,-0.19991688748888237,-0.12456131504023915,-0.04536276065891798,-0.07263756529596321,-0.07530446133330315,0.014561324590545155,0.004978710776981643
0.01171875,-0.18182111105602417,-0.218301433818624,-0.12701512908108725,-0.027715714168152772,-0.06240089689413253,-0.0670839916949717,0.05069146880032349,0.04038033907249883
0.015625,-0.19811586682294546,-0.24139631804587225,-0.13309911750525316,-0.012822965800296515,-0.055182454161695205,-0.061807771345456786,0.08447712218639936,0.0731998994751848
0.01953125,-0.21783822035104095,-0.26812153208766176,-0.14230541012238973,-0.000839513347727916,-0.050900034409551154,-0.059346731973164424,0.11520166154355138,0.10276974293788044
0.0234375,-0.2397012046628788,-0.29702342274617877,-0.15359752580934583,0.008881400503923942,-0.04877973935890623,-0.058933316893217125,0.14326455932689441,0.12956121508977958
0.02734375,-0.26188708091012813,-0.32609868227950756,-0.1654368588788202,0.01749835121245269,-0.04754787141791894,-0.05932420776844083,0.16964248850115382,0.15465196767650013
0.03125,-0.2821537847808031,-0.352831484917715,-0.17599296597836656,0.02621955275117216,-0.045796170411449566,-0.059129334317731264,0.19516848048795055,0.17900008941751366
0.03515625,-0.2981775750754423,-0.3745147054701192,-0.18351796171600654,0.035807460108117084,-0.0424261514808677,-0.05722613138914312,0.2198816471121745,0.20277544265923098
0.0390625,-0.30804736894651796,-0.3887903829991046,-0.18677233981634345,0.0462405154166845,-0.037012597431385075,-0.05311274264840904,0.242722750343205,0.2250279678150946
0.04296875,-0.3107375334820972,-0.3942260491385241,-0.18534119305968488,0.05668594837970886,-0.02993270697970729,-0.047053319462975196,0.2617412384608997,0.2438676318661237
0.046875,-0.30637264814004084,-0.3907043364392848,-0.17971207455502736,0.06581124978310982,-0.02219765349309455,-0.03994709629751014,0.2747613052633824,0.2571147952323827
0.05078125,-0.2961687144420466,-0.3794563454562194,-0.17107822714024223,0.07230410403735732,-0.015055590552037756,-0.032974824648590584,0.28022556008977517,0.2631457789448177
0.0546875,-0.28205728597185953,-0.362698067135625,-0.16094358556983934,0.07536281998454797,-0.009543384749122197,-0.027178685968465288,0.2778187884189265,0.2615370817693474
0.05859375,-0.2661186400132465,-0.3429786019637504,-0.15068413006247283,0.07492363351957465,-0.006188244583427149,-0.023161661033554992,0.26854729995307025,0.2531764131674663
0.0625,-0.25002312753485967,-0.32246273207192644,-0.14122767311164353,0.0715158563480145,-0.004985452051187167,-0.021030729158155737,0.25419610594212827,0.2397521541297465
0.06640625,-0.23467585208436503,-0.3024040822197094,-0.13295607459440362,0.06582270373201027,-0.005640259814754245,-0.02058644099633966,0.23639946178377613,0.22284527290139522
0.0703125,-0.22018441114823872,-0.28300424048666173,-0.12583565478507808,0.058184625117974065,-0.007926487910481228,-0.02163659473808366,0.21578786579823372,0.20307931691831982
0.07421875,-0.20615009788116367,-0.2637174993935787,-0.11968866431288916,0.04833206901366793,-0.011950817224715138,-0.024248762997558515,0.1916943297430862,0.17981066591232775
0.078125,-0.192165963142088,-0.2438959896267079,-0.11446964265360293,0.03554372085545765,-0.018151119718368136,-0.02878159222063914,0.16268707270228333,0.15163252342631495
0.08203125,-0.17832783782978368,-0.2235378850912184,-0.1104211335700711,0.0192293327927473,-0.026984700696175423,-0.035644468709961075,0.12782407488032277,0.11759883733475363
0.0859375,-0.1655607881900778,-0.20385019894320067,-0.10804463812519316,-0.00027762325771618634,-0.03841918783109577,-0.044870397175600374,0.08816178187487367,0.07871243568047248
0.08984375,-0.15562635091725951,-0.18739138596401972,-0.10790517990244552,-0.021063254251885155,-0.05145017212271341,-0.05569160421714514,0.047864009644627004,0.03903195811005844
0.09375,-0.1507881615125939,-0.17769792881594526,-0.11035539237980174,-0.03944345117190551,-0.06388409623525604,-0.06632582838506096,0.014342419696333764,0.005830971261389095
0.09765625,-0.15323100144293278,-0.17847762157074953,-0.11529359245088244,-0.050413167418383864,-0.07253528666595344,-0.07411140590107834,-0.0028105251459464853,-0.011434886815209211
0.1015625,-0.16441235217712347,-0.1926021329090588,-0.12205437638357353,-0.04867381075968069,-0.07383381994685578,-0.07599967677407449,0.006102273353292276,-0.0031645139841884884
0.10546875,-0.18454936601131067,-0.22120420695159737,-0.12948061645090547,-0.029966631842626157,-0.06469009150578131,-0.069282670267512,0.04836396882978988,0.03790255398428144
0.109375,-0.21239966230268692,-0.26315242607211076,-0.1361638837238388,0.007670287516248209,-0.04337091752404376,-0.05235053635033182,0.12661118553580764,0.11446912395740583
0.11328125,-0.24540129572869773,-0.31505695829991964,-0.14078553078888945,0.06308287936462875,-0.010135806860489538,-0.025261414293709095,0.23753026923145626,0.22337051319709644
0.1171875,-0.2801251355322165,-0.3717962542282294,-0.14245730994844052,0.1318510385317495,0.03254808689234778,0.01003891725304129,0.3718470473756952,0.3555390541976067
0.12109375,-0.31290250035453937,-0.427405339564757,-0.1409582353062433,0.20685499180217448,0.08027856779335707,0.04991557034372818,0.5156159055275111,0.49725564821301305
0.125,-0.34045041275021504,-0.47607861120013695,-0.1367922095596441,0.2794220677060366,0.12741952559736092,0.08962075526142144,0.6524843421118476,0.6323762065107985
0.12890625,-0.3603334164381522,-0.5130348199600121,-0.13104528306939756,0.34078338728704693,0.16806836811156245,0.12411544503265759,0.7663916647970836,0.745000320989675
0.1328125,-0.37116888051969,-0.5350606784304546,-0.12508252211773652,0.38350597719727375,0.19706419607246062,0.14894419564370764,0.8440889693872577,0.8219758456107229
0.13671875,-0.3725626527284476,-0.5406543550634524,-0.12017252970508707,0.40258706235363206,0.21080990109112463,0.16096348076644063,0.8769461601332296,0.8547073306885977
0.140625,-0.3648375752618449,-0.5298010705701017,-0.11714465131262841,0.395997233226808,0.20773464370904549,0.1587677900261042,0.8617207889471956,0.8399388562452259
0.14453125,-0.34865732345679135,-0.5034961247929459,-0.1161648697234341,0.36461187846725807,0.18833074477697664,0.1427466997938609,0.8002414624286303,0.7794589365062166
0.1484375,-0.32465931099068257,-0.4631754961792467,-0.11667151511574048,0.31163516212018294,0.1548133070627955,0.11480963735266414,0.6982415854395185,0.6789569368947923
0.15234375,-0.2931945601858388,-0.4102211477174933,-0.11746865880013502,0.24173991164389008,0.11054618198613753,0.07789736855556839,0.5637727262808312,0.5464530374865717
0.15625,-0.2542481070122449,-0.345683119462592,-0.11694251611515938,0.1601856070010399,0.059410439234852674,0.03543068771705293,0.4056779143724043,0.39077843894119724
0.16015625,-0.20757433816243065,-0.27030556282170437,-0.11336246075188683,0.0721222619404216,0.005259593649498129,-0.009178549476018816,0.2324926899888169,0.22047020920012983
0.1640625,-0.1530414603934105,-0.18486453434718442,-0.10523398863426792,-0.017831212062446866,-0.048470738533978874,-0.05289425075716281,0.051919371912845236,0.043227055712691254
0.16796875,-0.09111868948252777,-0.09073079709764897,-0.0916731721645192,-0.10577291220670304,-0.09901216557750558,-0.09330830330611661,-0.12922438497042776,-0.1341695927692399
0.171875,-0.023382568770102807,0.00952098133666368,-0.07275808400208916,-0.1885877445317874,-0.14443201834524189,-0.12882262367952535,-0.30485228252885577,-0.3057309534426622
0.17578125,0.047128764890658204,0.11169134950250736,-0.04978298306923534,-0.26402333475061823,-0.18377100019506543,-0.15879408010732732,-0.46954747467964353,-0.4662190704607383
0.1796875,0.1158893923047799,0.20995064176076994,-0.025315699758721166,-0.3308222034092978,-0.21714673437145393,-0.1836275203004334,-0.6187709669092101,-0.6113562989185084
0.18359375,0.17730710055730015,0.29738563966930087,-0.002964100076496834,-0.3888574013899415,-0.24575641077717592,-0.2047499378932116,-0.7493154434712324,-0.7382547941858775
0.1875,0.22559223111784377,0.3670718626835878,0.01318699105468113,-0.4391436334572063,-0.2716844278438657,-0.2243833705506404,-0.8597891465456087,-0.845850891550981
0.19140625,0.255918337188632,0.4134543587497319,0.01940597371685726,-0.4835971054717447,-0.29745760343757865,-0.245075398197514,-0.9508331544338944,-0.9350564482701884
0.1953125,0.26558060994830157,0.4336660595072317,0.013232437368060346,-0.5245021696964614,-0.32538432037654275,-0.26904010042017035,-1.0248437938287225,-1.0084166675028428
0.19921875,0.2548000566093833,0.4283693897377816,-0.005775291356258094,-0.5637796931523553,-0.35682973020811914,-0.2974657036247663,-1.0851717426874075,-1.0692649539123522
0.203125,0.22688297462991613,0.4018073980205372,-0.03571761908460758,-0.6022707594866006,-0.39165072962532577,-0.33000605981214903,-1.1350027122603024,-1.1205962664462277
0.20703125,0.1876238968634425,0.3609783618685469,-0.07260857159963052,-0.6392946403366295,-0.4280080645457929,-0.36465493735704513,-1.1762928089353863,-1.164037790601924
0.2109375,0.1440787116280262,0.31413023293680453,-0.11118333986814832,-0.6726752985741768,-0.4626687371001026,-0.39809393115319835,-1.20915738932581,-1.1993071709071046
0.21484375,0.10304790976078948,0.2690027542939788,-0.1460532814689941,-0.6992835892560834,-0.49175616823049495,-0.42645478970371187,-1.2319709519204025,-1.2243984244264539
0.21875,0.06970819299567665,0.23133029003474803,-0.17288013509642042,-0.7159629831221537,-0.5117483397043543,-0.44628956175074563,-1.2421927060302096,-1.2364828521072013
0.22265625,0.04678366849475424,0.20403109601829783,-0.18923208244814305,-0.7205643726138078,-0.5204320530083351,-0.45546678961727594,-1.2376641507216846,-1.2332516661217596
0.2265625,0.034461123732398846,0.18726936446000764,-0.19488845737214433,-0.7127630681225128,-0.5175249526701009,-0.4537251072633808,-1.2179390829203385,-1.2142487157973392
0.23046875,0.031010500833872356,0.17928539364220342,-0.19153424091200577,-0.6943854344854117,-0.5047726006068842,-0.4427180329003022,-1.1851646171123775,-1.1817156853055621
0.234375,0.03385054014870548,0.17764850213097816,-0.1819759347654326,-0.6691149536663943,-0.48548662334724213,-0.42553512002996285,-1.144157813826041,-1.1406078783693374
0.23828125,0.04067933900842036,0.18047654748443165,-0.16914478351282014,-0.6416413640408791,-0.46365566674921865,-0.4058443323629035,-1.1015788246027114,-1.0977055708849548
0.2421875,0.0503040951116418,0.18722121808423253,-0.15520046758865647,-0.6164961234844668,-0.4428960096447554,-0.3869113953669512,-1.0644149881500198,-1.060053136825445
0.24609375,0.06293248588917777,0.1987999098673754,-0.14100046996645688,-0.5969352798729233,-0.4255600458691333,-0.3707954334686292,-1.03825681918579,-1.0332214515074156
0.25,0.07988455763552338,0.2170983748328581,-0.1260742408248916,-0.5842382648779676,-0.4122864112332536,-0.35797120290226303,-1.0259641278764775,-1.0199919131537172
0.25390625,0.10287598684044497,0.24408205945292138,-0.10908144076893223,-0.5776785627631398,-0.40214347052369703,-0.3475038141687037,-1.027232947592438,-1.0199641167218942
0.2578125,0.13314976854417182,0.280864099977407,-0.08858464184413606,-0.5752006018155953,-0.39332886103693454,-0.3377221844402811,-1.0392691791594189,-1.0302784545501709
0.26171875,0.17076104086299893,0.32705969488233677,-0.0638684412024304,-0.5745762763353923,-0.38418724557232053,-0.32716417308620294,-1.0583527831897754,-1.04721674887287
0.265625,0.2142458299658756,0.38062106000325,-0.03552014504748513,-0.5746009605900326,-0.3741683087810088,-0.3154422927309497,-1.081672916569687,-1.06805466515425
0.26953125,0.26076654080497974,0.43816427819365344,-0.005556501037062844,-0.5758203798222894,-0.36432945194064814,-0.3036770692688151,-1.10862873015094,-1.0923523063866014
0.2734375,0.3066702163323498,0.4956337704697944,0.022975029878580244,-0.5804166960388102,-0.3571226443455089,-0.2942721266663284,-1.1409372859816358,-1.1220295590419482
0.27734375,0.3482803663246159,0.5490727801316098,0.046819366161798825,-0.5912021947551693,-0.3554697514118743,-0.29004669954701967,-1.1813627338597144,-1.1600539906453378
0.28125,0.38268962043730426,0.5952839785550168,0.06350546755129471,-0.610063011663442,-0.3614324839418259,-0.2930109985754825,-1.2315233490767241,-1.2082048783668142
0.28515625,0.4083462386006431,0.6322539150005468,0.07217511210910743,-0.6364956846027781,-0.37499771110560687,-0.30325674060804886,-1.2897409860102016,-1.264894102348535
0.2890625,0.42530177779553924,0.6593184309622302,0.07395351531158667,-0.6669202434750332,-0.39351434111267736,-0.31844436421124556,-1.350018337120673,-1.3241301246580406
0.29296875,0.43508867975106114,0.6771167306851567,0.07171377092163311,-0.695192170496739,-0.4120986147881922,-0.334168703375326,-1.4028356787321172,-1.3763204407268859
0.296875,0.44028843149135355,0.6873926849948475,0.06929343498995877,-0.7142474487409345,-0.42494676222304406,-0.34514386015871423,-1.4376868122667474,-1.4108287444969392
0.30078125,0.4439076519702212,0.6926763376213785,0.07041336402835441,-0.7183138848176895,-0.42710934167189407,-0.34680857652347186,-1.446467543075869,-1.4193931292538764
0.3046875,0.4487007458919834,0.6958419476177369,0.077647598573094,-0.7048406871490442,-0.416070008668612,-0.3367622980476881,-1.4263598728803117,-1.3990443505917938
0.30859375,0.4565651465782139,0.6995400383402739,0.09176267212751554,-0.6753714671958733,-0.3925288183381781,-0.3154955834361317,-1.3809769825456897,-1.3532838778473888
0.3125,0.4681064069700369,0.7055498940644611,0.11160204849147703,-0.6349933414639963,-0.36009637938150263,-0.2861496568584698,-1.319203796867896,-1.2909495552548833
0.31640625,0.48244461936519656,0.7141805156152259,0.134502045057161,-0.5905596651700762,-0.3240284627281653,-0.25341415721413796,-1.2521031607093391,-1.2231379429294975
0.3203125,0.49731036710909393,0.7239149510951393,0.15706444855823065,-0.5483609015755064,-0.289486479232437,-0.2219882162535214,-1.1890459674646081,-1.1593342321702949
0.32421875,0.5094476023259631,0.7314974936889485,0.17603400692678406,-0.5121096080529242,-0.25995899477493367,-0.19516227212079684,-1.1345370154458578,-1.1042201464306345
0.328125,0.5152958806320385,0.7325734259211458,0.18904296439359314,-0.48195636281889165,-0.2363788382808707,-0.17399537455276004,-1.0869234685628726,-1.056345745098497
0.33203125,0.5118463377584703,0.7228143488191563,0.1950639898495865,-0.4548361403067247,-0.21718085463362513,-0.15730864788565668,-1.0394369667210412,-1.009121710637828
0.3359375,0.4974892817699583,0.699262500347686,0.19451101707090857,-0.42594959381858644,-0.1991983253901708,-0.14241871326703404,-0.9831388609882197,-0.9537128917713744
0.33984375,0.4726176427993778,0.66148700739177,0.18901340581578552,-0.39079387192941795,-0.1790209296359535,-0.12629436696443008,-0.9106616616350038,-0.882740373242541
0.34375,0.43977206587442197,0.6121375122347672,0.18094740994456515,-0.3470097169611108,-0.15432274835802673,-0.1067172092916735,-0.8193953817681177,-0.7934547454624408
0.34765625,0.4032203548831603,0.5566377154764268,0.17284457953792298,-0.2954213584871468,-0.12472642652028298,-0.08307068810609053,-0.7130115839970586,-0.68928194707496
0.3515625,0.36803218961267703,0.5020290245738579,0.16681394754414214,-0.23995376352559106,-0.09195542816087254,-0.056536066495027626,-0.6008293240711282,-0.5792423252160006
0.35546875,0.33888399286752247,0.4552673686930575,0.16410939451816375,-0.18649463129349897,-0.05927103075009654,-0.029675760515601723,-0.49526050105441755,-0.4754665283712711
0.359375,0.3189338855236201,0.4214727198359469,0.1649437564310574,-0.14109909329818038,-0.030408372708734532,-0.005570953476308205,-0.40818573765477595,-0.3896401921110737
0.36328125,0.30909980353044375,0.4026593316552862,0.16858908225003688,-0.10811717743308691,-0.008362576409126632,0.013200335047258704,-0.3474168153161372,-0.3295123462976335
0.3671875,0.30795156646945543,0.39732434942152395,0.1737247146138543,-0.08882116731001588,0.005598224106506677,0.025425521243960247,-0.31432935188036026,-0.29653709532340145
0.37109375,0.312234035959591,0.4009960221651454,0.1789225763104696,-0.08093367398487317,0.012401670801409637,0.031705383207736304,-0.30334824430156004,-0.28533060003610444
0.375,0.3178454619501281,0.4075494643984712,0.18311847327368014,-0.0791734748872841,0.01499459756360011,0.03436355200392427,-0.30338995671286284,-0.28505626303854115
0.37890625,0.3209668761883222,0.41087825763952424,0.18592777450976428,-0.07663588519335462,0.017585890077498334,0.03685460114866146,-0.3007905213792128,-0.2822848017558499
0.3828125,0.31901672059575503,0.40643629972691997,0.1877179442999477,-0.06659551843313238,0.02453793968015816,0.042850629711210786,-0.2828498466556084,-0.2644797447715064
0.38671875,0.31118428722720637,0.3922436420111808,0.18943355684086782,-0.044221607709005184,0.03922507119114016,0.05527103041913506,-0.24100446260888475,-0.22313552605623954
0.390625,0.2984434814834458,0.3691414676154636,0.19224726344191367,-0.007751182806714496,0.06317178957715441,0.07552390712817214,-0.17280881081660482,-0.15575525935673795
0.39453125,0.2831077914322577,0.3403153190362218,0.19716303256700485,0.04116104435070156,0.0956922079353717,0.10315882903455531,-0.08228605885562956,-0.06622611437023807
0.3984375,0.2681120128689152,0.31030506697504734,0.20470599637611997,0.09796141064999375,0.13410654997603189,0.13600982440298282,0.021329486177279477,0.03639616197315121
0.40234375,0.2562559906493789,0.2838282604500364,0.21479689493730802,0.15640313932863137,0.17445567834784015,0.17077459801839723,0.12602643373327282,0.1402750822165899
0.40625,0.2496185231848358,0.2647437398195507,0.22684231737457594,0.21009523010206976,0.2125077074310866,0.20386254817594818,0.21993671595055275,0.2336766922184097
0.41015625,0.2492613973004154,0.2553854656639487,0.23999449894063218,0.2539872738793747,0.24478434568209195,0.23227942591574902,0.29399270662366916,0.30760617697467296
0.4140625,0.25523136315541706,0.25635009137658926,0.25347484466919923,0.28542608987436324,0.2693403686748752,0.2543142940680809,0.34370442136832935,0.35758262662000107
0.41796875,0.2667708258741186,0.26667574815064654,0.2668324938781552,0.30455329280698606,0.28610526214833953,0.26985460976902687,0.36971571049093654,0.3842063591719125
0.421875,0.2825968294928316,0.2842481592324475,0.28003263707887527,0.3139980471189574,0.29672126800051046,0.2802620855391069,0.3771379919470519,0.39250910965904495
0.42578125,0.3011152642784509,0.30624132563161766,0.293330472800335,0.31800591671071743,0.3039504505863988,0.28786439543182496,0.37396935503863915,0.39038778787414685
0.4296875,0.3204946921187002,0.3294443402523939,0.30696547526076756,0.3212782786476964,0.31083611418125656,0.29522131939074825,0.3691020227236663,0.38661872459044844
0.43359375,0.3386115139392132,0.3504231926854118,0.32078138190172467,0.32784379300210276,0.3198581737251516,0.304376719384436,0.3704525504133471,0.3889874431450835
0.4375,0.35296143607865815,0.3655789413414823,0.3339174980965254,0.3402349193493137,0.3323056958492998,0.31629978280989235,0.38362339616071495,0.40294744252378223
0.44140625,0.36068026076918613,0.3712470046934868,0.3447118501753721,0.35912627538436936,0.34801483650426235,0.3306555882431894,0.41128309469229407,0.43100203583890107
0.4453125,0.3588032484458381,0.3639930810095393,0.35090522487735143,0.38344913377841294,0.3655134435120999,0.34594960851563883,0.4532202169116317,0.47277320724958827
0.44921875,0.3448108429893182,0.34118704661523225,0.3501448446741051,0.4108758204779406,0.38250383482818506,0.3599896203354547,0.5068664119534105,0.5255544301974169
0.453125,0.31737670269649243,0.3017872529653687,0.34067743825971775,0.4384931706624684,0.39653222927427123,0.3705251714336555,0.5680291401688464,0.58508450884176
0.45703125,0.2771013072333517,0.24710870860644718,0.3220309032769819,0.4634690853322354,0.40564922088037747,0.3758784856700004,0.6316209608669965,0.6463170452164491
0.4609375,0.2269410739330624,0.18124958156562343,0.2954473012906078,0.48355477710870787,0.40887933394628817,0.37538679675819253,0.6922747397553053,0.704059167522253
0.46484375,0.17208013503022812,0.11088067708442395,0.26387783691461664,0.49734250850974604,0.40638127174474903,0.36953493420810446,0.7448461936121475,0.753465901226491
0.46875,0.11914622177755518,0.0442748131490589,0.2314792624247275,0.5042908419738978,0.39928574580017084,0.3597602074023598,0.784876280413016,0.7904577703499172
0.47265625,0.07489596498544415,-0.010288090379617643,0.20271994571885443,0.5046046069878685,0.3893032953783404,0.34801951187546365,0.8090926648662844,0.812147654016826
0.4765625,0.04469924874683784,-0.04635666073227185,0.18134504387035122,0.499082368321524,0.3782620865422359,0.3362810758744672,0.8159645190630727,0.8173092069796439
0.48046875,0.03125009584437066,-0.0608739867402619,0.1695031528470281,0.48900913185434547,0.3677313458183562,0.32610692812795605,0.806212179682575,0.806813552856056
0.484375,0.03387950187061506,-0.05501134126006946,0.16727921092751785,0.4760939020798105,0.3588166208601251,0.31842667169712513,0.7830698613986442,0.7838526308034943
0.48828125,0.04866575409323559,-0.034012913374681375,0.1727375718019175,0.462375290055661,0.3521156273222914,0.31350600693258457,0.7520676827965644,0.7537275532598642
0.4921875,0.06930422102868761,-0.006079432068872848,0.1824211750545146,0.44999814008406247,0.3477544154861789,0.311036508549023,0.7201901919273723,0.7230579832651074
0.49609375,0.08849733035276586,0.019422941477387212,0.19213932489492436,0.44082492323127553,0.345421653946687,0.31025818003627137,0.6944782509066272,0.6984637810347749
0.5,0.09951467916380352,0.03398091052986274,0.19783945504059375,0.435958135369674,0.3443766942723414,0.31007057543774863,0.6803902579122223,0.6850164115945745
0.50390625,0.09756628571722104,0.03170355000747804,0.19638537196442485,0.4353562310654979,0.3434831867821231,0.3091536058263955,0.6804202641319534,0.6849366478434149
0.5078125,0.08070554713413003,0.010451984167048067,0.18611969210269308,0.43774669222784723,0.3413537541518963,0.3061552504846077,0.693469062618135,0.697017297213165
0.51171875,0.050098677206733555,-0.027895069365513336,0.16713879347207694,0.4409518226111686,0.33665212129108113,0.29997563188999266,0.7152476335647862,0.7170411020496203
0.515625,0.009633851050239173,-0.07806026758316875,0.14124489666755835,0.44256738362946635,0.328503134028324,0.290102420308358,0.7396282839522428,0.7391081133789612
0.51953125,-0.035021088251596666,-0.1326906726717425,0.111574905758971,0.4407602389733256,0.31686361978700006,0.27687467252235365,0.7604920355674949,0.7574273972466017
0.5234375,-0.0776916238010017,-0.1840470673641903,0.08195331702154363,0.43486863887665095,0.30267091233326937,0.2615292231666899,0.7734198117503865,0.7679338409616321
0.52734375,-0.11300801361358026,-0.22564879031961027,0.056080921240209136,0.4255456218515974,0.28764593196228816,0.2459398160681303,0.7766361704852898,0.769156908830837
0.53125,-0.13745884075433423,-0.2534922316499433,0.03672926141007338,0.4143715557347605,0.2737642432748544,0.2320808221156767,0.7709207423545195,0.7620729043367191
0.53515625,-0.1499570032592601,-0.2665920675326561,0.02513786512281513,0.4030861191495205,0.2625593396032855,0.22137591315640748,0.758619357554835,0.7490854301295258
0.5390625,-0.1518168915026763,-0.2667839851255849,0.020775246412085835,0.392757357303708,0.25451524265918124,0.21416407491869904,0.7422330234874153,0.7326178632638403
0.54296875,-0.14619354260503314,-0.25792289193304896,0.02153757350242813,0.38323271667195513,0.24879125248844502,0.20949457280039496,0.7231939385121677,0.7139228124231067
0.546875,-0.137167347702416,-0.24474778115290974,0.024334184445251594,0.3731025230990781,0.24340624804608524,0.20535021860723646,0.7013141374301313,0.6925826845360916
0.55078125,-0.12873343280261906,-0.23173834051704034,0.02589845848888217,0.36019774540818617,0.23583902475365903,0.19924355854072928,0.6750821057721623,0.6668632899220484
0.5546875,-0.12395329918035713,-0.22224188001018774,0.02359874429203046,0.3424351291414496,0.22384696762856038,0.18899484643952746,0.642630862301985,0.6347278542762069
0.55859375,-0.1244552549906075,-0.21803521121910308,0.016030043070713873,0.3186894019790998,0.20622474039555527,0.17343357683330396,0.6029384795880333,0.5950642041341325
0.5625,-0.13035405288519542,-0.21934117455657542,0.003240018031647196,0.28936202056684124,0.1832418234926081,0.1527895534536583,0.5567419787411154,0.5486019034606215
0.56640625,-0.14053820507342607,-0.22519090236983175,-0.01344626809895999,0.2564215080269605,0.1566059779634088,0.12864163068115886,0.5067590631568919,0.4981173304940967
0.5703125,-0.15318377677431272,-0.23394935055875976,-0.03192192821188655,0.22287667178488846,0.12895647216737416,0.10343669032408798,0.4570768190603758,0.4477943953418162
0.57421875,-0.16631727817184583,-0.24381992602684477,-0.049948511104958015,0.1918476542073222,0.10304911768344027,0.07973440574460255,0.4118895642335474,0.4019325174908772
0.578125,-0.1782734528887886,-0.2532029270696512,-0.06576296129878756,0.1655552921420167,0.08090555070339178,0.059426909615467594,0.37404323194323297,0.36346732912306834
0.58203125,-0.18795768141899316,-0.2608719569252571,-0.07846867333682894,0.1445987791726111,0.06322022727545118,0.04319902302540868,0.34396027004390817,0.33288226219951866
0.5859375,-0.194898703398394,-0.2660085201000584,-0.08811579732537211,0.12780618874330685,0.049237911525779055,0.03041655816105049,0.31941616462916045,0.30798256389630296
0.58984375,-0.19914385518404742,-0.26817514253707486,-0.09547919432861818,0.1127377586840339,0.03714895058237744,0.019481873891891155,0.29633041798149407,0.28469094459637745
0.59375,-0.20108043230493422,-0.26729505719913504,-0.10164249886202015,0.0966681383829382,0.024854756475178874,0.008519933203388064,0.2703239463386353,0.2586127969550489
0.59765625,-0.20126515920537713,-0.26366238614627946,-0.10755645263316183,0.07767025067551003,0.01080606182313204,-0.003871406306643621,0.2384517756581772,0.22677601663190217
0.6015625,-0.2003084418333856,-0.2579515125944454,-0.11373521147106658,0.05536326597166408,-0.0054187694331631064,-0.018104287846654188,0.20039976256214231,0.18883252650425675
0.60546875,-0.19881161250623336,-0.25115947011045137,-0.12018605843877594,0.031009051326691406,-0.023028228213206603,-0.03352130306666368,0.15861338908962352,0.14719046959044135
0.609375,-0.19731745837248127,-0.24442115176270818,-0.1265628846169875,0.006903285054704611,-0.040455134353578615,-0.048777643257835734,0.11724650939015646,0.10596716393251882
0.61328125,-0.19622582669853728,-0.23868754794875713,-0.13243847263311181,-0.014698038341975916,-0.056128580894210245,-0.06251568862580825,0.08030982634466,0.06914501504695636
0.6171875,-0.19565885622796486,-0.23433629259272948,-0.13755120598091253,-0.032675973926643564,-0.0692518185019253,-0.0740415266875516,0.04975168899079563,0.03866270859020915
0.62109375,-0.1953158523804177,-0.23085854650162219,-0.14191299690935466,-0.047712541473288184,-0.08025823383661645,-0.08371703863474522,0.02426340728334253,0.013230359030558247
0.625,-0.19440789778002454,-0.22678933797593004,-0.14574985396365037,-0.062235756104200846,-0.09075580020834195,-0.09290657043692363,-0.0006633955607071584,-0.011609502692522256
0.62890625,-0.1917659431249774,-0.21999756327772957,-0.14933686376394917,-0.07964753923062062,-0.10298268993125248,-0.10350451340457312,-0.03137955761900457,-0.04213276660891552
0.6328125,-0.18615909880281833,-0.20832393232694812,-0.15283690402156935,-0.1031140186569246,-0.1189890070918409,-0.11723540893626705,-0.07387219813637103,-0.08424863651157466
0.63671875,-0.17675940355843522,-0.19039922349861627,-0.15623468030412369,-0.13435537127293173,-0.13985183500153653,-0.13499324325039197,-0.13147937849566915,-0.14124376157553797
0.640625,-0.16359273047328315,-0.16636019140037206,-0.15938957176331314,-0.17285526610066881,-0.16519647871859888,-0.1564495555328449,-0.20331835060005687,-0.21223811241810608
0.64453125,-0.14777927148657,-0.13817026456308668,-0.16215586029488804,-0.215740511677609,-0.19316326138607565,-0.1800402547047497,-0.2839542041499499,-0.2918676624830141
0.6484375,-0.13142236543473018,-0.1093690995546126,-0.1644806260081566,-0.2583399796307617,-0.2207939262532932,-0.20329860794809917,-0.3644000848845863,-0.3712769216512868
0.65234375,-0.1171362740137738,-0.0842813427937017,-0.16641032551945045,-0.29521593258863277,-0.24468294590462847,-0.22339778915636543,-0.4341053714274068,-0.4400776121293859
0.65625,-0.10735666577943448,-0.06692787479778417,-0.16800076707568223,-0.321343099685123,-0.26168769906576017,-0.23773079149691512,-0.4833094182643549,-0.48866030510907876
0.66015625,-0.10368182756792521,-0.06000928465255129,-0.16919536349746522,-0.333118350681616,-0.2695206582359333,-0.244388303372034,-0.5050929070549159,-0.5102055391503768
0.6640625,-0.10649629444969833,-0.06431510257698392,-0.16977072547774696,-0.32898683421933583,-0.2671243954921465,-0.2424640932474631,-0.4966334370415382,-0.5019167099717947
0.66796875,-0.11502480035119333,-0.07875418361891207,-0.1694258955353689,-0.3096194856055945,-0.2548144824032761,-0.2321847247799269,-0.4594750848685436,-0.46529199204670135
0.671875,-0.12779398961271227,-0.10096635438827661,-0.1680188757013923,-0.27770112853708895,-0.23423027517566197,-0.21489663826201877,-0.3989248235636289,-0.4055477489384174
0.67578125,-0.1433107250647936,-0.12825440975916536,-0.16586416151653793,-0.23745584609713433,-0.20814130508028938,-0.19294083131171647,-0.3228905374186297,-0.3304964328876281
0.6796875,-0.1606694581823831,-0.15845704126604687,-0.16394112378748105,-0.19403150375296718,-0.18013375324699155,-0.16941704572559502,-0.2405202033095577,-0.24922191066423238
0.68359375,-0.17981776068154431,-0.1904137647557036,-0.16386034928927984,-0.15282162380003683,-0.15417186460808807,-0.14781488744119997,-0.16091855581379377,-0.1708128554156474
0.6875,-0.2013392101929412,-0.22384055853308382,-0.16750737330539778,-0.11876133498844865,-0.13402872411916178,-0.13149785971222627,-0.09207836537683534,-0.10328343513776872
0.69140625,-0.22580917935499656,-0.2586776703950022,-0.17641064520290684,-0.09563235892073862,-0.12262519177852482,-0.12307795849153536,-0.04005577736165833,-0.0527134869088286
0.6953125,-0.252969756031618,-0.29419658043039476,-0.19101848725000536,-0.08545640595158943,-0.12139221272633449,-0.1237989089020175,-0.008391168648813618,-0.022623778406227757
0.69921875,-0.28107483807104927,-0.32827137319557664,-0.21015553386405372,-0.08811285390208923,-0.12983782760045415,-0.13311104485325131,0.0021837482933051433,-0.0136466393740875
0.703125,-0.306728177967841,-0.35717995450212925,-0.23091547785014654,-0.1013337014299509,-0.14550605786922688,-0.14862425601336327,-0.00633239416458764,-0.023595079667870777
0.70703125,-0.3253721270191079,-0.37611212755361834,-0.24912125651255224,-0.12116717007515376,-0.16443150641087811,-0.1665411235585168,-0.029729037454018226,-0.048007950503858865
0.7109375,-0.332344782805194,-0.38029089921565173,-0.26028489408247424,-0.1428650744372817,-0.182037538820623,-0.1825187165849229,-0.06251125483913711,-0.08113569549550448
0.71484375,-0.32419558948504346,-0.36636800260225755,-0.2608035636342265,-0.16199136965155958,-0.19425727515454128,-0.19274387597079112,-0.0990608892692535,-0.11717393988419644
0.71875,-0.29983080551687635,-0.33362654505708633,-0.2490181323366869,-0.17544427777238525,-0.19855148991609894,-0.1949063772599402,-0.134743546098548,-0.15143336185019507
0.72265625,-0.2610924028090267,-0.28456596012915725,-0.22578330316491702,-0.18208780261375068,-0.19450783383945236,-0.18876544771728732,-0.1666614508621933,-0.1811240597504593
0.7265625,-0.2125492670757012,-0.22463374804715386,-0.19434796172390634,-0.18280591973507399,-0.18383259714482847,-0.17612862990290523,-0.19385634697499654,-0.2055464296546461
0.73046875,-0.1605278470151461,-0.1611381748034546,-0.15956310051024047,-0.17997796319946247,-0.1697402041145324,-0.16024931781544183,-0.21694566987306985,-0.22567325785871617
0.734375,-0.1116457113425895,-0.10162952435166517,-0.12664439275056338,-0.176556745223877,-0.15593503022159894,-0.14483199528569912,-0.23735607546093718,-0.2433018067016235
0.73828125,-0.07126186574168969,-0.05219880883089445,-0.09985062909834141,-0.17504832383608004,-0.1455016089835226,-0.13295122336387522,-0.25643608558834075,-0.260080423197806
0.7421875,-0.04228165906283721,-0.01616786704516926,-0.08146117025376043,-0.1767146198261571,-0.14004090509445177,-0.12621102207788226,-0.2747541012482202,-0.27674025160351334
0.74609375,-0.024650205432408256,0.006468191315889271,-0.07134611479386876,-0.181247036934451,-0.13931273912248798,-0.12439609875514179,-0.29182020444551426,-0.29278900104401373
0.75,-0.015666593355945224,0.01870422750016587,-0.06724657453105465,-0.18701364368212126,-0.14149053839673797,-0.1257172712598731,-0.3063338325226539,-0.30677592466332726
0.75390625,-0.011006058286966436,0.02541686683343869,-0.06566731514112689,-0.19180065891077902,-0.14394398561989874,-0.1275689953672554,-0.3168846709478146,-0.3170491673643028
0.7578125,-0.006120579598700715,0.03183971841735911,-0.06309066691301268,-0.19379800875185538,-0.14428885819484094,-0.1275477821138793,-0.3228613119077295,-0.322742104152951
0.76171875,0.002426951084544271,0.04209762494156166,-0.05711269324137902,-0.1924724415403034,-0.1413386669923966,-0.12437940810627879,-0.32520624415610655,-0.32460235388498404
0.765625,0.016105090594464855,0.058233794675288664,-0.0471277772362555,-0.18897820552865596,-0.13560540423895873,-0.11841730440664833,-0.3266481352071082,-0.32527197824094856
0.76953125,0.034261084636000305,0.07996802509069312,-0.034347657162925316,-0.18589298989013514,-0.129140104832004,-0.11151220746796753,-0.3311754799284472,-0.3287704650745127
0.7734375,0.054636885238323885,0.10514642667658336,-0.021185897480791027,-0.1863029908122371,-0.12473926602751817,-0.10627848467947842,-0.3427731725125227,-0.339204119015335
0.77734375,0.07427865966747049,0.130600369629974,-0.010273183193021396,-0.19251843497158916,-0.1247878600452168,-0.10501426572773198,-0.3637477243856324,-0.3590425219357485
0.78125,0.09045123761097784,0.15303009348599517,-0.003496452904983016,-0.20487826901671724,-0.13016714461855372,-0.10867800881442236,-0.39320538647302783,-0.38754718545419564
0.78515625,0.10123027038844157,0.16960612470029446,-0.0014210144172466244,-0.2211213825376035,-0.13965424727757636,-0.11632032226316369,-0.42631082841637635,-0.41999810562742823
0.7890625,0.10564080810127052,0.17819135678109888,-0.00327723626014631,-0.2366395008834843,-0.15007681497536396,-0.1252106756055582,-0.4547869210114186,-0.448184920287531
0.79296875,0.1034454015780284,0.17731447599089734,-0.007450879024872847,-0.2456311278820067,-0.1572125540860725,-0.13164445533675462,-0.46874342274350056,-0.4622450440194825
0.796875,0.09483571261625912,0.16614546893833904,-0.01221684442498372,-0.24284946675834362,-0.1571491026197691,-0.13216146044214838,-0.45945331095254005,-0.4534530262390035
0.80078125,0.08028482056943176,0.14467785547367384,-0.01638251490021503,-0.22539506971952505,-0.14763957523200588,-0.12475043575932432,-0.42229026497864197,-0.4171627363547259
0.8046875,0.06067415370125673,0.114134024897794,-0.019578408227971522,-0.19394130390537612,-0.1289770281687197,-0.10961086616134708,-0.35885939375646103,-0.35492728223118775
0.80859375,0.03760693800813897,0.07739091500980066,-0.022113454178906977,-0.15292933142063703,-0.10406562012121867,-0.0891951117409917,-0.27749290865131115,-0.27497660326503137
0.8125,0.013664546827385493,0.03909731915996417,-0.024509873242095637,-0.10959132090704315,-0.07764134579701931,-0.06750455128212707,-0.19174347754002952,-0.19069855117237466
0.81640625,-0.00765965069149388,0.0052062105737604725,-0.02696678613745007,-0.07205026442136386,-0.054886504230466926,-0.04887308691081671,-0.11715117942401321,-0.1174141819326735
0.8203125,-0.02248784525260561,-0.018132272849857856,-0.029017984015666798,-0.047069239020314235,-0.03989205427101794,-0.03664743164488726,-0.06717331483066524,-0.06834308989914217
0.82421875,-0.027467738306086176,-0.026075681169857035,-0.029548638202925304,-0.0381607896393632,-0.03447381935473004,-0.03220453015373437,-0.049515643196773595,-0.050991207034556396
0.828125,-0.02077941474443179,-0.016516787049170034,-0.027170580119140197,-0.04466441710926361,-0.037724777690595346,-0.0346240471293946,-0.06404086828892819,-0.06511894000416074
0.83203125,-0.0028571314203418297,0.00909690633932314,-0.02079723415704393,-0.062088469476861974,-0.04643372975010607,-0.04110532358936325,-0.10295762531420394,-0.10297058938846249
0.8359375,0.02349345606944553,0.04592148172832822,-0.010174318276767735,-0.08359972092364387,-0.056210534893352815,-0.04796667951723066,-0.1532645317325887,-0.1517214149870938
0.83984375,0.053700823343660886,0.0868992167113447,0.00385938392355456,-0.10217340218332538,-0.06293142007507413,-0.051878650708658824,-0.20069249018206392,-0.1973802721266793
0.84375,0.08261225303840547,0.12464872867212762,0.01949761241348824,-0.1127144315660189,-0.06402941465921685,-0.05092223887004366,-0.23390877768036944,-0.22892084139414237
0.84765625,0.1058944860687916,0.1534812099635019,0.03444277751896152,-0.11349114714676034,-0.059228078441719845,-0.0451422152991654,-0.24767946715797962,-0.24136074294744958
0.8515625,0.12119411962885351,0.17089691084493097,0.046561893896068796,-0.10646572690120593,-0.05051719398352361,-0.036448490448037774,-0.244046857389435,-0.236871846581721
0.85546875,0.12867171506059094,0.17807570884542656,0.05448568884958149,-0.09647158094594488,-0.041423120933359314,-0.02793762376995801,-0.23123091352772462,-0.22365325058615326
0.859375,0.1307317560872434,0.17920637418455954,0.05793994262148772,-0.08954948071959734,-0.03584435148695775,-0.02288479095113871,-0.2206846723140643,-0.21300615138386547
0.86328125,0.13104387619478075,0.17988475775609913,0.05770222344381182,-0.0909964157358445,-0.03683904736817567,-0.023740511778669315,-0.22328676685390292,-0.2155869172071334
0.8671875,0.13319288427737774,0.18511988031377768,0.05521887658233027,-0.10373501169169685,-0.0457344597748488,-0.031435703817805916,-0.2458746539701906,-0.2380213359742811
0.87109375,0.1394213313687942,0.1976144119453238,0.05204105946177151,-0.12747395317092014,-0.061798175465810345,-0.04517582397056685,-0.2891585868525226,-0.2808923582620082
0.875,0.1498931538890247,0.21688892104521074,0.04929840713430167,-0.15885962056927383,-0.08251994643160288,-0.06273799613154551,-0.3475825867127469,-0.3386427671614456
0.87890625,0.16272360880975612,0.23952816263772547,0.047403645453414356,-0.19250835237016872,-0.10436569652938488,-0.08113363492157077,-0.41107765014203324,-0.40132414724780574
0.8828125,0.17474853564181103,0.2604438122943975,0.046081453319857246,-0.22255711940033507,-0.12374336222364946,-0.09740810469338612,-0.46808322196056906,-0.4575706746834385
0.88671875,0.18274447199928545,0.27469921803913167,0.04468064673801564,-0.24424849698334583,-0.13788952912818786,-0.10934095939774124,-0.5088675187892022,-0.4978461092264297
0.890625,0.1846507586833468,0.2792517079797108,0.04261482899892144,-0.2550988966731893,-0.14544890802881127,-0.11587506776322698,-0.5281479129592981,-0.5169914629732375
0.89453125,0.18034705817626673,0.2740048614668922,0.03972795070694701,-0.2553628064561053,-0.14663683600701916,-0.11720821646576951,-0.5262881472845038,-0.5153766977628038
0.8984375,0.17170462740523362,0.2618107828311622,0.03641849843916134,-0.24773484597062634,-0.14300802320121875,-0.11458577375833556,-0.5088246641804517,-0.4984250274731039
0.90234375,0.16189711971037468,0.2474392317708407,0.0334638343701954,-0.23645233682145772,-0.13695380118861067,-0.10990375187702739,-0.48458740664614197,-0.47477481857072235
0.90625,0.15422791932451219,0.23589100806020724,0.03161866857226414,-0.22610373662246275,-0.13109462315696874,-0.10525124594096269,-0.4630665273452905,-0.45371670154281674
0.91015625,0.1509044409431226,0.23065574339398154,0.031165527047960495,-0.2204831019980702,-0.12771796775723487,-0.1024970543994641,-0.45182855501479935,-0.4426820154890265
0.9140625,0.15220356885947695,0.23251546110714116,0.031622889196114556,-0.22176127600914697,-0.12836041207719973,-0.1029766991678116,-0.4546749661216154,-0.44545123145667276
0.91796875,0.15632201666448964,0.23928487280500121,0.03176143081873306,-0.23011343586176736,-0.13356738293168746,-0.10729077359883377,-0.47093535116005114,-0.46145630250293834
0.921875,0.1599559169562781,0.24654207209096057,0.02995628278767981,-0.24380327090511855,-0.14282133520282514,-0.11520309328716394,-0.4959189787712148,-0.4861994042926199
0.92578125,0.15939640718443115,0.24906776729949343,0.02476662075423519,-0.25962479810459627,-0.15461473878985998,-0.12563214113470167,-0.5222450756292574,-0.5125191648858163
0.9296875,0.1517614549584323,0.24249716545909905,0.015536528508164338,-0.27356595921901317,-0.16665507018842618,-0.13674954857378907,-0.5416190713702917,-0.5322953278152909
0.93359375,0.13595703762803169,0.22465873428245686,0.0027896192023035837,-0.28157066367384687,-0.17620443770738348,-0.14621569732753414,-0.5466295114331388,-0.5381884555788474
0.9375,0.11307515990210959,0.1962196876093003,-0.011744887729037146,-0.2803034533371829,-0.1805517513275845,-0.15156902577473375,-0.5322477036884266,-0.525115769534068
0.94140625,0.0861356852510653,0.1605070849564072,-0.025509223178232787,-0.26783417439446566,-0.1775770215317607,-0.15074051873398275,-0.49684212122258486,-0.4912779942856105
0.9453125,0.05928993118686776,0.12262979964816623,-0.03579043550416827,-0.24414356403212878,-0.16630778532089607,-0.14259703817742775,-0.4426024986514676,-0.43862802279193147
0.94921875,0.0367557362324078,0.08820844499268787,-0.04047716117838718,-0.21132711225391176,-0.1473154114250974,-0.1273614245178578,-0.37531339547314246,-0.3727044735057916
0.953125,0.021803863603508944,0.06208392733242363,-0.038656260414882126,-0.17338429358915164,-0.12279351579991271,-0.10674887107597897,-0.3034562521264661,-0.3017924932180449
0.95703125,0.01606461808023596,0.04732754632641445,-0.030860583422054333,-0.1355485785836663,-0.09622416285992585,-0.08371912230131784,-0.23671111648582155,-0.23546644456473587
0.9609375,0.019300131270938437,0.0447482229049001,-0.018898973053183,-0.1032428400549179,-0.07166017113036105,-0.06185920398138478,-0.18407664148512026,-0.1827253948150087
0.96484375,0.029642666987683697,0.05294299398883595,-0.00533615462927628,-0.08088341729717285,-0.052788610815923676,-0.04454223656580325,-0.15198515912473454,-0.1500976418711275
0.96875,0.04417855592464548,0.06880621938876175,0.0072032193543236644,-0.07084678443902703,-0.042034027813997454,-0.03409851956348575,-0.14287621219466473,-0.1401832534497771
0.97265625,0.059690922427080295,0.08832919817791662,0.016691622306552745,-0.0729028535317866,-0.039969300758002646,-0.031246916165628136,-0.1546404879704255,-0.15105713480068061
0.9765625,0.07336733887086666,0.10749009504706919,0.022132631727345142,-0.08430522768776427,-0.04521884022778977,-0.0349624613704691,-0.18115058963985575,-0.1767590376289263
0.98046875,0.08331725354082664,0.12304435159649074,0.023668363269280235,-0.10054528587488676,-0.05489507515221703,-0.042826577839605307,-0.21380701653583856,-0.20880827911184952
0.984375,0.08880901702923438,0.1330671182131482,0.022358165097102756,-0.11658471521514002,-0.06545242570155096,-0.05176377015914113,-0.24373926343912444,-0.23838825846667078
0.98828125,0.09020957492111847,0.13715959568116887,0.019718200405804964,-0.1282364863186558,-0.0737193275313075,-0.05895498134123045,-0.26409749498412793,-0.25863837649353627
0.9921875,0.08868020273666843,0.13630618411752948,0.01717477005058754,-0.13330658532595407,-0.07781022759445477,-0.06266144936262208,-0.27181110517915386,-0.26642705641677367
0.99609375,0.08573615417617475,0.13244643781717969,0.015605962744302815,-0.13215573346769816,-0.07764131737530988,-0.06270852281886619,-0.268298357752883,-0.26308511813510904
1.0,0.08280590435560953,0.12788930803253606,0.015118239105049724,-0.12748922273431162,-0.07487732034405781,-0.06046802525361272,-0.25887654597767096,-0.2538418577557877
