time,Fz,Cz,Pz,Oz,P3,P4,PO7,PO8
-0.19921875,0.10865219479683219,0.12583667796661757,0.0828282153975124,0.03927663527747427,0.05403534686365674,0.05484363896357536,0.00793332333159924,0.014040103302193074
-0.1953125,0.06373979033469368,0.0738208996153844,0.048590393930680875,0.02304126844876464,0.03169932938362763,0.03217350297290977,0.0046540096221292515,0.008236494153379681
-0.19140625,0.033807424415499554,0.03915442192692353,0.02577222346644703,0.012221031298054186,0.01681324413027596,0.017064746060668767,0.0024684749799774863,0.004368616135508319
-0.1875,0.023112988856155425,0.02676855181960036,0.017619596448525954,0.008355105052260114,0.011494645235643475,0.011666588584091642,0.0016876126052167706,0.002986674685345747
-0.18359375,0.0319834576600897,0.037041978373508755,0.024381769492265448,0.01156168671911928,0.015906142181165706,0.016144076298019172,0.002335296622746341,0.004132922004629336
-0.1796875,0.05674845482417368,0.06572381749947453,0.043260730109295764,0.020513974519076328,0.02822237021860019,0.028644537408695214,0.0041435321840310735,0.007333070151105403
-0.17578125,0.09047788296356885,0.10478790812840089,0.06897349891232807,0.03270681148137555,0.04499682759728785,0.045669914072732354,0.0066063123860260475,0.011691607681996175
-0.171875,0.12442298213954928,0.14410177584522899,0.09485066954084687,0.04497760741628554,0.06187853784922481,0.06280414766024478,0.009084838659134675,0.016078013587161877
-0.16796875,0.14991844921041775,0.1736296297849549,0.11428649315803341,0.05419395421313311,0.07455804507117136,0.07567332716007513,0.010946410888834635,0.019372553339280785
-0.1640625,0.16036719330259075,0.18573095417195873,0.12225181933445128,0.05797106794602769,0.0797544572606057,0.08094747272480163,0.01170933394689655,0.0207227479620542
-0.16015625,0.152844805256791,0.17701881915854756,0.11651732734208053,0.05525180313270539,0.07601340001883727,0.07715044603173737,0.011160080859440313,0.01975070063053863
-0.15625,0.1288863984427735,0.14927113056728558,0.09825324553958126,0.0465910865443675,0.0640983017774488,0.06505712235593819,0.009410738854853662,0.016654778889346744
-0.15234375,0.09418523205795282,0.10908161129918881,0.07179969685466858,0.03404698034614739,0.04684057941517494,0.04754124560690798,0.006877006963890153,0.012170673358014028
-0.1484375,0.05722006335417973,0.06627001880588068,0.04362025052273566,0.020684456814024088,0.02845691327024724,0.028882586988743242,0.004177966861362847,0.0073940116251947074
-0.14453125,0.027151910941825008,0.03144626958828667,0.020698564640042605,0.009815132706592067,0.013503298035288935,0.013705287571497138,0.0019825177055565746,0.0035085865324191445
-0.140625,0.011574157632310289,0.013404731546984294,0.008823262120927211,0.004183937196700072,0.005756106702392572,0.005842209827022771,0.0008450959376737899,0.001495619739166898
-0.13671875,0.01475895050617737,0.01709323349530223,0.01125110760114012,0.00533520649881325,0.00733998062329988,0.00744977635136479,0.0010776360914732663,0.0019071606516263273
-0.1328125,0.03688139216251329,0.04271457143545376,0.028115586303556483,0.01333223931254679,0.018342003471616408,0.018616374219959653,0.002692923217750831,0.004765836170150806
-0.12890625,0.07437290605594171,0.08613576341076623,0.05669627967108681,0.026885029313916675,0.03698743356039813,0.03754071187245245,0.005430394800498561,0.009610512385904713
-0.125,0.12118070458200236,0.14034671380613872,0.09237901110736857,0.04380556362093557,0.060266081902682345,0.061167575893250614,0.008848102694969384,0.015659045615734613
-0.12109375,0.17043605282651697,0.1973922962861252,0.12992755671348277,0.06161085508438191,0.08476194324202879,0.08602986412142855,0.01244451919291123,0.02202385118721395
-0.1171875,0.21596142119051365,0.2501179778846563,0.1646326523996322,0.07806779933616781,0.10740280487198106,0.10900939173552615,0.015768588212949908,0.02790666719931778
-0.11328125,0.2531920699766488,0.29323706485229195,0.19301450038256007,0.09152629587561023,0.1259185040680677,0.12780206759543944,0.018487014585844008,0.03271763659995486
-0.109375,0.27937423396906524,0.32356018664359,0.21297378793860844,0.10099087432990927,0.13893952655053,0.14101786405262828,0.02039872448733604,0.03610091070527233
-0.10546875,0.2932001166300324,0.339572807206423,0.22351360939865117,0.10598878930068167,0.1458154770261899,0.14799665848386212,0.02140823163188088,0.03788749936006752
-0.1015625,0.2942244634596136,0.3407591293580481,0.2242944816543968,0.10635907443656833,0.14632489353516576,0.14851370622182003,0.02148302336024699,0.03801986281359859
-0.09765625,0.2824110936217039,0.3270773731856025,0.215288878280262,0.10208866996208599,0.14044982776795223,0.1425507605290477,0.020620463558884694,0.03649333635280527
-0.09375,0.2580058264811669,0.2988121536873223,0.19668414097395726,0.09326641503548672,0.12831250728595478,0.1302318679563541,0.01883849343187194,0.033339670579835
-0.08984375,0.22171001035076188,0.2567757633187284,0.16901495314414205,0.08014585972659916,0.11026171620187597,0.11191107773811382,0.016188327123245472,0.028649504102418177
-0.0859375,0.1749576199472358,0.20262899624867714,0.13337445636807388,0.06324535206658766,0.08701062625959821,0.08831218423210885,0.012774664881476383,0.02260813047882948
-0.08203125,0.12005163796402485,0.13903905937695527,0.09151828805897821,0.043397413662660256,0.05970456129489321,0.060597656670324795,0.008765661974052819,0.015513146323087312
-0.078125,0.06000786356707977,0.06949873920802929,0.04574545897639837,0.0216922177997958,0.02984335267797178,0.030289768915281456,0.004381520479768142,0.0077542532395113994
-0.07421875,-0.0018768002707503229,-0.0021736357158630426,-0.0014307305340466314,-0.0006784436901163815,-0.0009333778194786646,-0.0009473398732140481,-0.00013703600754144674,-0.00024252128083546154
-0.0703125,-0.0625620018013251,-0.07245683519840895,-0.0476925379189197,-0.022615511241497188,-0.031113586373976432,-0.031579002524040334,-0.004568012634820207,-0.008084300340271966
-0.06640625,-0.1196807630776675,-0.13860953629318828,-0.09123556310441927,-0.04326334845927704,-0.059520118611544603,-0.06041045708116144,-0.008738583190393001,-0.015465221991917133
-0.0625,-0.1716698250220361,-0.19882121193859348,-0.13086810213280842,-0.06205685565419117,-0.08537553242149443,-0.08665262640761284,-0.012534604465486154,-0.02218328098990696
-0.05859375,-0.21758866353138728,-0.25200259301527694,-0.16587314632943162,-0.07865602924539417,-0.10821207041544767,-0.10983077203263747,-0.015887403392866872,-0.028116939887468106
-0.0546875,-0.25674813741716207,-0.2973555410790141,-0.195725363028032,-0.09281176716058326,-0.12768701651566516,-0.1295970264436619,-0.018746661112345464,-0.03317715169259827
-0.05078125,-0.2883508045670169,-0.3339565068927186,-0.21981684028560267,-0.10423580931728793,-0.1434037812941824,-0.14554889560258744,-0.021054153975796908,-0.03726086816868701
-0.046875,-0.31132947242440423,-0.36056948715668113,-0.23733404930226243,-0.11254235943169988,-0.1548316248545234,-0.1571476957451523,-0.02273196031410407,-0.040230187181578
-0.04296875,-0.3244744561925472,-0.37579349054794875,-0.24735479087212298,-0.11729412818795026,-0.16136894487317477,-0.16378278644424427,-0.02369175078342778,-0.041928789329404026
-0.0390625,-0.32681222705832624,-0.3785009994317079,-0.2491369173185376,-0.11813921219072654,-0.1625315775299896,-0.1649628131872305,-0.023862446241196267,-0.04223087657351243
-0.03515625,-0.31809287293071975,-0.36840259554082877,-0.24248996055575844,-0.11498725882574945,-0.1581952346896287,-0.16056161200594943,-0.023225796397241538,-0.041104158299276605
-0.03125,-0.29919809207967774,-0.3465193856300175,-0.22808599453583156,-0.10815698914257155,-0.14879839227432967,-0.15102421002666233,-0.021846178199780297,-0.03866255937623464
-0.02734375,-0.2723064369547501,-0.3153745353756676,-0.2075858276384679,-0.09843593318237254,-0.13542452848014364,-0.13745028581979568,-0.019882662627423997,-0.035187603941722045
-0.0234375,-0.24073270310509542,-0.27880710717909096,-0.18351640562741522,-0.08702236442559297,-0.11972215929745289,-0.12151302541951736,-0.01757728362861144,-0.031107628473137083
-0.01953125,-0.20846204051849782,-0.24143250243469083,-0.15891569660198002,-0.07535685142556758,-0.10367318026283101,-0.10522398241619157,-0.015221015559063744,-0.02693759171279453
-0.015625,-0.17949604114164686,-0.20788520771475305,-0.13683420263532753,-0.06488594550546622,-0.0892676936814496,-0.0906030095393362,-0.013106040697152821,-0.023194587583930115
-0.01171875,-0.15718606505288335,-0.1820466906110596,-0.11982676539901149,-0.05682112202975986,-0.07817240543772641,-0.07934175272339417,-0.011477061079290252,-0.02031167944949175
-0.0078125,-0.1437330041653695,-0.1664658810796027,-0.10957117524412752,-0.05195797925239276,-0.07148187819439045,-0.07255114553572639,-0.0104947757151308,-0.018573267368537927
-0.00390625,-0.13998084114064113,-0.1621202727619675,-0.1067108073016243,-0.05060161356595927,-0.06961583665088256,-0.07065718676813049,-0.010220808199790099,-0.01808840899286679
0.0,-0.1455385785220642,-0.1685570367726541,-0.11094761021013255,-0.05261067670403463,-0.07237983368213463,-0.07346253028117644,-0.010626610702502148,-0.018806584733965792
0.00390625,-0.15916046436359466,-0.18433335924328276,-0.12133190807617211,-0.05753484799697617,-0.07915432576055537,-0.08033835996457128,-0.011621223094948618,-0.02056681225326429
0.0078125,-0.17923309769685147,-0.207580683309061,-0.1366337585295696,-0.0647908962037036,-0.08913692539636031,-0.09047028726172357,-0.013086841832432583,-0.023160611206662907
0.01171875,-0.20419041391050996,-0.23648526337183284,-0.15565932187655562,-0.07381269995221373,-0.10154879959145546,-0.10306782627367284,-0.01490911927248817,-0.026385610141232974
0.015625,-0.23271604732144624,-0.269522530516042,-0.1774051128222709,-0.08412442298322276,-0.1157352826908209,-0.11746651296107302,-0.01699194029924911,-0.03007171045510404
0.01953125,-0.2636863314364746,-0.3053910972994345,-0.20101452946619247,-0.09531986222555133,-0.13113755414906336,-0.1330991779013857,-0.01925326031937402,-0.03407371096386669
0.0234375,-0.295921125825771,-0.34272414950464736,-0.22558788259630091,-0.10697240071522174,-0.1471686772447356,-0.14937012338123168,-0.021606906486226762,-0.03823910788014473
0.02734375,-0.32789782267172995,-0.3797582905917807,-0.2499645006537321,-0.11853164494368684,-0.16307146211147483,-0.16551078374504868,-0.023941710836083985,-0.04237115902583355
0.03125,-0.35760842820309335,-0.4141679710301105,-0.27261364721198333,-0.1292717257683762,-0.1778472693558797,-0.18050761241283908,-0.02611105465177843,-0.046210381299260916
0.03515625,-0.38268353819148615,-0.44320893266558414,-0.2917289805282053,-0.13833610523761308,-0.1903177206941109,-0.19316459543006204,-0.027941931435293554,-0.049450601835587804
0.0390625,-0.4007928566807095,-0.4641824489226565,-0.30553417218470713,-0.1448824349381539,-0.19932392092414375,-0.202305514562795,-0.02926419817583792,-0.05179069972882644
0.04296875,-0.4102024604435428,-0.475080298656394,-0.3127073568975902,-0.1482839167010752,-0.20400354117100505,-0.2070551516908381,-0.02995124859239695,-0.05300661598539591
0.046875,-0.4102792274807143,-0.4751691733417829,-0.312765848775598,-0.1483116562894793,-0.2040417115267701,-0.20709389048079174,-0.02995685122186842,-0.05301653160927344
0.05078125,-0.4017256003407965,-0.46526270125468727,-0.306245226511237,-0.1452196158879815,-0.19978779164375737,-0.20277633439036435,-0.029332301920703685,-0.051911229093093425
0.0546875,-0.3864122106733703,-0.44752735561814916,-0.2945714641100494,-0.13968399059649528,-0.1921720809150429,-0.1950466952393981,-0.028214184766284234,-0.04993242441742041
0.05859375,-0.36682436643786787,-0.42484148821131384,-0.27963915272266604,-0.132603176439261,-0.18243056842948135,-0.1851594788604416,-0.02678396171518216,-0.04740126868796324
0.0625,-0.3452992700658797,-0.3999119542186236,-0.26323004931327887,-0.12482207978337101,-0.17172561683764798,-0.1742943851468226,-0.02521229092167232,-0.04461978164727043
0.06640625,-0.32333664989891986,-0.3744757464119175,-0.2464874171437259,-0.11688283052535553,-0.16080309706012486,-0.1632084831726388,-0.023608674126762708,-0.04178176027380687
0.0703125,-0.3012673346347583,-0.34891590416918916,-0.2296634278309284,-0.10890499879678828,-0.14982748552938574,-0.15206867942652025,-0.021997264454398646,-0.0389299472658422
0.07421875,-0.2784491925922339,-0.32248885872832034,-0.21226861690593068,-0.10065647870760586,-0.13847947855083476,-0.1405509379992509,-0.020331182071231524,-0.035981376100835405
0.078125,-0.25396417413503514,-0.2941312686743913,-0.1936030855631543,-0.09180540416764416,-0.12630248136247246,-0.12819178607514914,-0.018543389046499215,-0.03281740745819661
0.08203125,-0.227581153922074,-0.26357551519140543,-0.17349066183669493,-0.08226821535117779,-0.11318157788764438,-0.1148746164858494,-0.016617013542941095,-0.029408177226741827
0.0859375,-0.20061824557160435,-0.23234812829286966,-0.15293618105260975,-0.07252140221680747,-0.09977227932722599,-0.10126472460569858,-0.014648295021402191,-0.025924013158373782
0.08984375,-0.1763380481634158,-0.2042277600367015,-0.1344267843705893,-0.06374436622991198,-0.08769714554546226,-0.08900897086050463,-0.012875457144900793,-0.022786510456285214
0.09375,-0.15965385102845175,-0.18490477771138103,-0.12170802676791936,-0.05771320132907931,-0.0793996974834954,-0.0805874051934552,-0.011657248499830075,-0.020630569252944042
0.09765625,-0.15616069504176266,-0.18085914632592903,-0.11904510444082916,-0.05645046030622325,-0.0776624631271261,-0.07882418628923915,-0.01140219296758005,-0.020179180992840884
0.1015625,-0.17074434310870856,-0.19774935822169937,-0.13016257582876278,-0.06172230371248588,-0.0849152641535511,-0.08618548008598736,-0.01246702918678011,-0.02206368954205118
0.10546875,-0.20617440554815403,-0.23878303068158857,-0.15717176893303986,-0.07452989336798055,-0.10253548055061401,-0.10406926520545312,-0.01505398117274126,-0.026641982842079415
0.109375,-0.26209880843452993,-0.3035524684946722,-0.19980430465693644,-0.09474598527958733,-0.13034802748279617,-0.1322978562257049,-0.019137344153818958,-0.03386856661791171
0.11328125,-0.33473139637862914,-0.38767268506489927,-0.25517391577523085,-0.12100190360797569,-0.16646995959490596,-0.1689601134557961,-0.02444066993234628,-0.04325419666884045
0.1171875,-0.41731232158781495,-0.48331463631257066,-0.31812734846425883,-0.1508540492523025,-0.20753944340867747,-0.21064393251890579,-0.030470378220570637,-0.0539253512954474
0.12109375,-0.5012024644202029,-0.5804728857583541,-0.3820788663233543,-0.1811794732020644,-0.2492600401637901,-0.2529885989588365,-0.03659568292846416,-0.06476569325286619
0.125,-0.57731654123927,-0.6686252049803443,-0.4401024682465504,-0.20869390482403105,-0.28711338018183596,-0.2914081846938643,-0.042153207147066496,-0.07460119633151407
0.12890625,-0.637540551906568,-0.7383742968158913,-0.4860127091887989,-0.2304642663375489,-0.31706423442301457,-0.3218070503407944,-0.04655051100144192,-0.08238338011778978
0.1328125,-0.6758233439541073,-0.7827118793102272,-0.5151966320227075,-0.24430309508716164,-0.336103198605997,-0.3411308284739789,-0.0493457612549264,-0.08733030654184404
0.13671875,-0.6887428298796294,-0.7976747156135389,-0.5250454933047877,-0.24897335038076562,-0.34252838077009073,-0.3476521044376568,-0.05028908844906255,-0.0889997764375039
0.140625,-0.6754962100785633,-0.78233301792352,-0.5149472031007463,-0.24418483235422173,-0.33594048431950796,-0.34096566992047883,-0.04932187280815015,-0.08728803635449367
0.14453125,-0.6374035592671135,-0.7382156468338508,-0.4859082878283516,-0.23041474150886643,-0.3169961075855099,-0.32173792874345963,-0.046540510112436095,-0.082365680498242
0.1484375,-0.5771235009888187,-0.6684016398139647,-0.4399553006351198,-0.2086241153165247,-0.28701737164738006,-0.2913107550739369,-0.042139113531902694,-0.07457624917606154
0.15234375,-0.49783170652517583,-0.5765690502812504,-0.3795092595737515,-0.17996097767536412,-0.24758367089816602,-0.25128719016720424,-0.036349565135651574,-0.06433012345041789
0.15625,-0.40260519540424866,-0.46628142058580124,-0.30691575148011907,-0.14553756955137942,-0.20022523017360072,-0.2032203241242314,-0.0293965261022322,-0.05202488750910561
0.16015625,-0.294176942361446,-0.34070413335030025,-0.22425825818572775,-0.10634190061864501,-0.14630126088377438,-0.14848973250991548,-0.02147955591169648,-0.038013727277075304
0.1640625,-0.1751053133602909,-0.20280006651773874,-0.13348704896998242,-0.06329874935318003,-0.08708408216762109,-0.0883867343759448,-0.012785449143848382,-0.022627217433068836
0.16796875,-0.048255614615300146,-0.05588774598663804,-0.036786431678592635,-0.017443902322611393,-0.02399867682356671,-0.024357662553597947,-0.003523420666340371,-0.006235620020333954
0.171875,0.08262697548389042,0.09569529879627225,0.06298856192188396,0.02986879010791199,0.04109238105343138,0.04170706446871009,0.00603307226398897,0.010677108974732619
0.17578125,0.21253248405628256,0.24614672611278365,0.16201869357246323,0.07682827884991639,0.10569751651701154,0.10727859489634284,0.015518223150934318,0.0274635780783683
0.1796875,0.33523215847708343,0.38825263004582666,0.2555556477545906,0.12118293568619265,0.16671900482378987,0.1692128819286154,0.024477232685171657,0.04331890579578612
0.18359375,0.44386936792761844,0.5140719849805464,0.33837244473033934,0.16045414952259307,0.2207468980941485,0.22404896071748226,0.032409463557314666,0.05735707375720267
0.1875,0.5320199534253334,0.6161645274005423,0.40557179659117537,0.19231967485211499,0.26458633328729775,0.2685441700123192,0.038845847427637636,0.06874795133171574
0.19140625,0.5949584078734915,0.6890573445161863,0.45355130851021386,0.2150712674620081,0.29588713346129225,0.3003131610057608,0.0434413465200123,0.07688089453949942
0.1953125,0.6307488433776598,0.7305084182007704,0.48083524006869993,0.22800914223353175,0.3136865700525959,0.3183788805927179,0.04605461256801391,0.0815057532577157
0.19921875,0.6407896648852329,0.7421372743010579,0.48848960432223976,0.23163879347976035,0.31868012229097076,0.32344712508347584,0.04678775056277118,0.08280323982035043
0.203125,0.6295855996540922,0.7291611723303504,0.4799484827344713,0.22758864304250892,0.3131080745788495,0.3177917164975952,0.045969677842094825,0.08135543794196565
0.20703125,0.6037632260813552,0.6992547127993021,0.4602634078310075,0.21825410101428133,0.3002659525463969,0.3047574921311025,0.044084234929187005,0.07801865109513528
0.2109375,0.5705988996851374,0.6608451030842843,0.43498147306308965,0.20626555397029733,0.2837725503468391,0.2880173894936888,0.04166271594385762,0.07373314048209068
0.21484375,0.5364983053368633,0.6213511483110778,0.40898575548453664,0.19393854699956137,0.26681351528168307,0.270804662250157,0.039172835641920756,0.06932663865200084
0.21875,0.5058818715042435,0.5858923941559624,0.3856460750739643,0.18287101966052433,0.2515872097319516,0.25535058512105024,0.03693735450838176,0.06537036512099803
0.22265625,0.48078834424813977,0.5568300593949971,0.36651670143328374,0.173799975300426,0.23910760660328378,0.24268430820484355,0.03510513124638237,0.062127767819220026
0.2265625,0.46125330754875904,0.534205355506856,0.3516246351864538,0.16673826053192897,0.22939234156638122,0.23282373717847804,0.033678762889621794,0.059603433300026154
0.23046875,0.44625338091464073,0.5168330403648724,0.3401898425181571,0.16131595259594178,0.22193253812474723,0.22525233589476557,0.032583532316721175,0.05766513666571882
0.234375,0.4348258926256676,0.5035981871515105,0.33147838962577225,0.15718502766048914,0.21624936152875307,0.21948414996586507,0.03174914553483177,0.056188468988693785
0.23828125,0.4269392093192437,0.494464131861605,0.3254661748997023,0.15433407440923474,0.21232712299479317,0.2155032348127861,0.031173293280062353,0.05516934464822043
0.2421875,0.4238135602463444,0.4908441155748733,0.32308341246789496,0.15320418356168375,0.2107726686517708,0.21392553151144966,0.030945074058763566,0.05476545084093232
0.24609375,0.4276168965589022,0.49524896894581616,0.32598279631201876,0.1545790553336701,0.21266416183607362,0.21584530429663573,0.031222775476180686,0.05525691904040286
0.25,0.44070310423194314,0.510404902342998,0.3359587310569623,0.15930957886212127,0.2191722359157211,0.22245075115279178,0.0321782742673804,0.05694792548638361
0.25390625,0.46472527515106776,0.5382264589570696,0.3542714068771602,0.1679933490095209,0.23111904567940655,0.2345762624145209,0.03393227387959996,0.060052087746953475
0.2578125,0.49998112672255957,0.5790583941234217,0.38114782796583313,0.1807379703677725,0.24865263981155294,0.25237213208129106,0.036506506262412586,0.06460787460582651
0.26171875,0.5452262712424272,0.6314594998002576,0.4156392776621942,0.19709359833086637,0.2711541071676038,0.2752101977421262,0.03981011431619663,0.07045446892561813
0.265625,0.5979763955110684,0.6925525894985185,0.4558519890451862,0.21616222056763945,0.297388027092893,0.301836536209521,0.043661703585939904,0.07727087592002135
0.26953125,0.6551113642672135,0.758724070237804,0.49940734925257857,0.23681592153934616,0.32580263109593943,0.33067615845538967,0.047833459859703,0.08465389100820175
0.2734375,0.7134854058676865,0.8263306199296494,0.5439073333945998,0.25791754865167604,0.35483344618114643,0.36014125726069324,0.05209568598729675,0.09219702690188569
0.27734375,0.7702947755205969,0.8921249445847934,0.5872144583918271,0.2784535126920673,0.3830861032838584,0.3888165167609259,0.05624366394840763,0.09953796364925438
0.28125,0.8231237416111981,0.9533093816571636,0.6274872816902644,0.29755062769254437,0.40935921674645215,0.41548264562152326,0.06010100861431056,0.10636455272106105
0.28515625,0.8697941211721627,1.0073612202177173,0.6630652933381498,0.3144214986150473,0.4325695215356973,0.4390401500131702,0.06350868630988771,0.1123953339288164
0.2890625,0.9082615406441619,1.0519125908103888,0.6923899604771577,0.32832707574925735,0.45170028784013994,0.4584570945098676,0.06631741200635588,0.11736611327251012
0.29296875,0.9367685152028571,1.0849282716662856,0.7141214837247389,0.33863204862427665,0.46587749125137634,0.47284635229516425,0.06839887589649152,0.12104980839922064
0.296875,0.9542884527036222,1.1052192121496773,0.7274773565768555,0.34496531498007243,0.4745905641811987,0.48168976718443446,0.06967810151081721,0.12331373966389947
0.30078125,0.9610706683815806,1.1130740631415392,0.7326475497393403,0.3474170000572485,0.4779635105478519,0.4851131620853266,0.07017330716507786,0.12419013728504069
0.3046875,0.9589545015842305,1.1106232022939366,0.7310343903554894,0.3466520581696386,0.4769111114910629,0.4840450174015132,0.07001879964718682,0.12391669201861077
0.30859375,0.9511493885838718,1.1015836207661778,0.7250843623296532,0.34383057823106355,0.4730294449473149,0.4801053137271083,0.06944890174054308,0.12290810502690874
0.3125,0.9413832913196529,1.0902729172812542,0.7176394660746155,0.3403002324375848,0.46817254428788146,0.4751757387566613,0.06873582236721631,0.12164612428477994
0.31640625,0.9326225836048252,1.0801265943882754,0.7109609327926592,0.337133343464302,0.4638156383407477,0.4707536618298036,0.06809615626934828,0.12051405917645752
0.3203125,0.9258168347514584,1.0722444585553603,0.7057727202663955,0.3346731318742968,0.46043095380809973,0.4673183298109507,0.06759922399623974,0.11963462043240725
0.32421875,0.9192022503157204,1.064583784682327,0.7007303111095098,0.33228204188162636,0.4571413683152059,0.46397957476074225,0.06711626099331625,0.11877988015385199
0.328125,0.9085494525606919,1.052246147992264,0.6926094329173793,0.3284311560491915,0.4518434764122503,0.45860241471018526,0.06633843696590702,0.11740332439558188
0.33203125,0.8884058502189873,1.028916585710249,0.6772534675292263,0.3211494572497031,0.4418255912241875,0.44843466184829595,0.06486763481916569,0.11480035055910776
0.3359375,0.8539947771168954,0.9890629826259101,0.6510210823762463,0.3087102129484265,0.4247121410116961,0.43106521729896485,0.0623550846512444,0.1103537314861569
0.33984375,0.803142881977692,0.9301683689955098,0.6122554054854845,0.29032779025328637,0.3994222481651377,0.4053970314998878,0.05864209384753849,0.10378261805499278
0.34375,0.7375429049716331,0.8541930469618819,0.5622469529953378,0.2666140801466099,0.36679782056125987,0.37228460314508993,0.053852261316933436,0.09530575084681914
0.34765625,0.6628555411225534,0.7676931090827566,0.5053109362052055,0.23961538886396738,0.3296540000974346,0.3345851666836097,0.04839890621610721,0.08565460518639156
0.3515625,0.5875388637832657,0.6804642680435791,0.44789518938159745,0.21238916758647974,0.29219719976936176,0.29656803235411644,0.04289960031655937,0.07592213080442889
0.35546875,0.5207290882935922,0.6030878125784511,0.39696448084214353,0.18823813263679767,0.25897108457684226,0.2628449351504969,0.03802143311304462,0.06728892998353331
0.359375,0.4698196107710828,0.5441265216177271,0.3581549492537306,0.16983489103949978,0.2336525852797422,0.23714768815352727,0.034304239449056695,0.06071037716992578
0.36328125,0.43848359609910403,0.5078343860986934,0.3342667582728609,0.15850724821575568,0.21806843619742722,0.22133042421046412,0.03201621723292192,0.056661122016521404
0.3671875,0.4257353793946095,0.4930698764837871,0.324548466323904,0.15389889540529111,0.21172843389649643,0.21489559287601878,0.03108539559093515,0.05501378552708047
0.37109375,0.4262871016180725,0.4937088533552014,0.3249690507800551,0.15409834475121897,0.21200281707933755,0.2151740829958726,0.03112567981133907,0.05508508138518664
0.375,0.43205639599364076,0.5003906267120328,0.3293671113624441,0.15618387294580316,0.21487203127890098,0.21808619976582122,0.03154692862494812,0.055830593481687174
0.37890625,0.4343484931723651,0.5030452712162514,0.33111444963651593,0.15701245104082773,0.2160119407790262,0.2192431765024594,0.03171428986092906,0.05612677966837509
0.3828125,0.4260747061834991,0.4934628918817907,0.3248071323014301,0.15402156350319274,0.21189718779623945,0.2150668620970464,0.031110168663417426,0.05505763311930423
0.38671875,0.4034089897686499,0.4672123736781941,0.3075285235354386,0.14582815310859587,0.20062499572759407,0.20362605823720514,0.029455216932205985,0.0521287581989327
0.390625,0.3664949019821506,0.42445992676221067,0.279388018498139,0.1324840894767476,0.18226671727461508,0.1849931692277096,0.026759906290863,0.04735869651995017
0.39453125,0.31911190490063746,0.36958277860321687,0.24326678271791025,0.11535562549624956,0.15870202219048224,0.16107597389236616,0.023300200879816657,0.04123583607906767
0.3984375,0.2674989616480161,0.3098067224982515,0.20392097610510973,0.09669808065382313,0.13303366586114862,0.1350236544794825,0.019531642081460632,0.03456637998056067
0.40234375,0.21872777722364845,0.25332187192361744,0.16674151481765875,0.07906781007704922,0.10877857903324184,0.1104057503198419,0.01597057597280127,0.028264137696965008
0.40625,0.17908048732806492,0.2074039286981133,0.13651741426201625,0.06473572256027182,0.08906102522132642,0.09039325021831246,0.013075698745979025,0.023140890093031885
0.41015625,0.15281692355983978,0.1769865178857799,0.11649606079799923,0.055241720531284955,0.07599952311920788,0.07713637018014197,0.011158044266323941,0.019747096402511488
0.4140625,0.14155517646941007,0.16394362489791092,0.10791097082574197,0.05117072277016632,0.07039879079684397,0.07145185776380458,0.010335760691759788,0.018291848036255942
0.41796875,0.1442931534256786,0.16711462080820638,0.10999819011203726,0.052160469721229674,0.07176045357937255,0.07283388470114005,0.01053567544317957,0.018645650357029808
0.421875,0.1579276869279056,0.18290560888090113,0.12039213004300109,0.05708921335667583,0.07854123396100476,0.07971610216372937,0.011531211541182529,0.020407513900977392
0.42578125,0.178027036668027,0.20618388418824907,0.13571435886206018,0.06435492139189591,0.08853712785139578,0.08986151556200639,0.012998780718476155,0.023004764315714965
0.4296875,0.1996033915929729,0.23117276271023002,0.15216254212191416,0.07215454900233453,0.09926756661116087,0.10075246592577969,0.01457419518402503,0.02579287361470506
0.43359375,0.21771052161057014,0.25214373522430833,0.1659660426867049,0.07870008289501129,0.10827267260538065,0.10989227661184486,0.015896301164275428,0.02813268729084939
0.4375,0.2278210047279572,0.26385328055766877,0.17367351290431543,0.08235491577579523,0.11330086380212379,0.11499567875716821,0.016634524868663902,0.029439171100875683
0.44140625,0.2260643441331922,0.2618187977532216,0.17233436722108308,0.08171990373284643,0.11242723019222467,0.11410897826635846,0.016506261246718168,0.029212174013082404
0.4453125,0.2094740381153315,0.24260455688818183,0.1596871754827589,0.07572268145850103,0.10417647899885196,0.10573480579978423,0.015294908450869116,0.027068365326954336
0.44921875,0.17636433824463893,0.2042582138983562,0.13444683588659245,0.06375386618628909,0.0877102266372276,0.08902224379880863,0.012877377386644184,0.022789908626918987
0.453125,0.12684112959959748,0.14690239424908214,0.09669408740364815,0.04585174551152704,0.0630811456403535,0.06402474639344291,0.009261402311722122,0.016390488966067096
0.45703125,0.06329935331450542,0.07331080809080959,0.048254637619038476,0.022882055361606035,0.03148028682176118,0.03195118836174515,0.004621850457908749,0.008179580568423717
0.4609375,-0.009352215002422781,-0.010831365138130877,-0.007129421497609201,-0.0033807281418773982,-0.0046510812978795,-0.00472065453394066,-0.000682859102596467,-0.0012084989675642532
0.46484375,-0.08399813111736876,-0.09728331917813193,-0.06403382712960592,-0.030364450509523522,-0.04177428891694035,-0.04239917572590457,-0.006133188179546778,-0.010854289911321757
0.46875,-0.15228212646434258,-0.17636713778301782,-0.11608837269250216,-0.055048399616453025,-0.07573355986778552,-0.07686642788939935,-0.011118996390280245,-0.01967798901603146
0.47265625,-0.20613070716990478,-0.23873244003880245,-0.15713845868958742,-0.0745140980029646,-0.10251375215375447,-0.10404721706436248,-0.015050790835857697,-0.02663633580368696
0.4765625,-0.23950153149598918,-0.277381218438677,-0.18257786393860442,-0.08657730887762227,-0.1191098704111937,-0.12089158474282158,-0.01748738753803991,-0.030948534401886718
0.48046875,-0.24988369773382146,-0.28940542051714147,-0.1904924431528343,-0.09033035297534298,-0.12427317130914162,-0.12613212163614662,-0.018245449595610808,-0.03229012435213008
0.484375,-0.23909433366497979,-0.2769095885923889,-0.18226742781735084,-0.08643010573905485,-0.11890735152064735,-0.1206860389402209,-0.01745765487726203,-0.030895915159590004
0.48828125,-0.21308906639205816,-0.24679133048266522,-0.16244300127254974,-0.07702947613097422,-0.10597431554515424,-0.10755954349406238,-0.015558862642706117,-0.027535500990438777
0.4921875,-0.1807760980909734,-0.20936774092206178,-0.13781003360691102,-0.06534867225127527,-0.0899042973401265,-0.09124914157609965,-0.013199505488614705,-0.023359998380101388
0.49609375,-0.15210147807920293,-0.17615792557990062,-0.11595066951031185,-0.05498310073903667,-0.07564372594970337,-0.07677524394011925,-0.011105806052569278,-0.01965464768716174
0.5,-0.13587626312983048,-0.15736651448605699,-0.10358178315073019,-0.04911785111971767,-0.06757452553074472,-0.0685853507320644,-0.009921109267452266,-0.017558013709617626
0.50390625,-0.13788491060040542,-0.15969285982464498,-0.10511303116800264,-0.049843958294104596,-0.06857347756294985,-0.0695992383725752,-0.010067772393540508,-0.01781757319463395
0.5078125,-0.15973930089785426,-0.1850037421036177,-0.12177316932593385,-0.0577440886218028,-0.07944218793909386,-0.08063053513751584,-0.011663487065050049,-0.020641609310700915
0.51171875,-0.19874362067184848,-0.2301770081203358,-0.1515071090807396,-0.07184374339885835,-0.09883997620363516,-0.10031848063363213,-0.014511417845142205,-0.02568177315254161
0.515625,-0.24876754878278007,-0.2881127159071184,-0.18964155401590688,-0.0899268712828416,-0.1237180669022564,-0.12556871809010772,-0.018163952120175964,-0.032145894834911815
0.51953125,-0.30185873356458615,-0.3496008673664619,-0.2301142671967682,-0.10911877978969642,-0.15012160758942628,-0.1523672068515225,-0.022040445912807627,-0.03900636968978688
0.5234375,-0.35013962929042464,-0.4055178806083859,-0.26691998300520936,-0.1265718196918897,-0.1741328503612749,-0.17673762897629786,-0.025565713102082555,-0.04524525820670533
0.52734375,-0.38748251540710044,-0.4487669400532468,-0.295387366122668,-0.14007089532697137,-0.19270437690011022,-0.19558694930310594,-0.02829233380907681,-0.05007072800822243
0.53125,-0.4105589823666378,-0.4754931808292895,-0.31297912528316374,-0.14841279494248738,-0.20418085000528663,-0.2072351037440967,-0.029977279325521522,-0.05305268402366892
0.53515625,-0.41907449599420943,-0.4853555424233491,-0.3194707005604869,-0.15149106502576615,-0.20841581260810926,-0.2115334183372397,-0.030599046851875755,-0.05415306247869012
0.5390625,-0.4152515771238541,-0.4809279516848619,-0.3165563953189121,-0.1501091162481316,-0.20651458498832653,-0.20960375479717186,-0.03031991369084608,-0.053659064747080265
0.54296875,-0.4028266857858398,-0.46653795493512007,-0.3070846048558451,-0.14561764771769958,-0.20033539271935297,-0.2033321209182759,-0.02941269983125494,-0.052053511723215706
0.546875,-0.3859186676891113,-0.4469557666197943,-0.29419521752060973,-0.13950557331554592,-0.19192663103240193,-0.1947975789562406,-0.02817814781508332,-0.04986864965417226
0.55078125,-0.3680960958263313,-0.42631435803741624,-0.28060864565304655,-0.1330628975892978,-0.18306303672943613,-0.18580139737878199,-0.026876818992604967,-0.047565603011889834
0.5546875,-0.35184575608582236,-0.4074938431131159,-0.2682205888504541,-0.12718857078652945,-0.17498135207461019,-0.1775988209828938,-0.025690287230872855,-0.045465725406756974
0.55859375,-0.33848013458737114,-0.3920143285540689,-0.2580316618150391,-0.12235703650276264,-0.16833431004670274,-0.1708523456045441,-0.024714386981372627,-0.04373861273165858
0.5625,-0.32837465369084384,-0.38031055282772286,-0.25032801431734697,-0.11870400840052753,-0.1633085986441074,-0.16575147299136006,-0.02397652743013623,-0.042432773739164986
0.56640625,-0.3213398542811774,-0.3721631287589844,-0.24496520723005233,-0.11616101147637892,-0.15981004253262654,-0.1622005640911084,-0.023462876086455253,-0.041523733784742944
0.5703125,-0.3169344893194648,-0.3670610055905854,-0.2416068980437558,-0.11456851467528395,-0.15761914085032913,-0.15997690638869244,-0.023141215166333495,-0.040954471813847704
0.57421875,-0.31460137961403234,-0.36435889683161804,-0.23982829588931054,-0.11372511465879143,-0.1564588245628329,-0.15879922443673422,-0.022970860769078172,-0.040652984978351014
0.578125,-0.3136280213311693,-0.3632315781487705,-0.23908629032121098,-0.11337326100147038,-0.15597476021866896,-0.15830791255666554,-0.022899790508290607,-0.04052720470326676
0.58203125,-0.31303952141570335,-0.36254999713492,-0.23863765363785205,-0.11316051740095645,-0.15568207345495466,-0.15801084884969896,-0.022856820436345515,-0.04045115886697204
0.5859375,-0.3115747233550792,-0.3608535337207286,-0.23752100730689563,-0.11263101384884067,-0.15495359662054398,-0.15727148650057643,-0.022749867767402066,-0.040261877387592904
0.58984375,-0.30785520266363164,-0.35654574048749055,-0.23468552967642609,-0.11128644672453447,-0.15310379808397556,-0.1553940052190228,-0.02247828412293984,-0.03978123785941534
0.59375,-0.30074679102654045,-0.34831305129046086,-0.2292666039238611,-0.10871682576407693,-0.1495686063890389,-0.15180593493369088,-0.02195925752346284,-0.03886268373776147
0.59765625,-0.28979056310163287,-0.335623980163291,-0.2209144156495313,-0.10475626766037749,-0.14411980941986258,-0.14627563871272287,-0.021159280549909454,-0.037446916678618436
0.6015625,-0.27550265713216504,-0.31907629249872116,-0.2100224065770817,-0.09959133961956468,-0.13701409784516727,-0.13906362994475785,-0.020116038612627563,-0.035600624670451
0.60546875,-0.2593549481844093,-0.30037466558496817,-0.19771260895140585,-0.09375411025303038,-0.12898345858047833,-0.1309128663251613,-0.01893700130040088,-0.03351400579276742
0.609375,-0.2433566805848386,-0.2818460700382275,-0.18551672553712706,-0.08797089634526856,-0.12102711366424046,-0.12283751971153833,-0.017768874371881793,-0.0314466994666418
0.61328125,-0.229320448852377,-0.2655899038472853,-0.17481657721418742,-0.08289695330176983,-0.11404657129787665,-0.11575254887929987,-0.016744008846103497,-0.029632930775846944
0.6171875,-0.21805284688980464,-0.25254018964915304,-0.16622701082269487,-0.07882383101787127,-0.10844292575029613,-0.11006507349975436,-0.01592129628136263,-0.028176923905220974
0.62109375,-0.20878785278455325,-0.24180982904908888,-0.15916407392069232,-0.07547463098944718,-0.10383521242829374,-0.10538844463781061,-0.015244804529856992,-0.026979694922601993
0.625,-0.19913983351216302,-0.2306358908299444,-0.15180916079771123,-0.07198697460353287,-0.09903703102054351,-0.10051848420289389,-0.014540348480807097,-0.025732973085723643
0.62890625,-0.18568900372883945,-0.21505766767404566,-0.14155526173453836,-0.06712463829217086,-0.09234760511844797,-0.09372899256732126,-0.01355822565329845,-0.023994846998220964
0.6328125,-0.16507935640674987,-0.19118837712994718,-0.12584401076765062,-0.05967446270460641,-0.08209792667912552,-0.08332599321647649,-0.012053395614941564,-0.021331654664891175
0.63671875,-0.1352944707377901,-0.15669270680973568,-0.10313827658592345,-0.04890754112807372,-0.06728519252874321,-0.06829168341937475,-0.009878629469994848,-0.01748283473546053
0.640625,-0.09666958078469179,-0.11195889015880311,-0.07369357746256355,-0.03494504596801562,-0.048076106651251393,-0.04879525405954155,-0.007058403639348398,-0.01249170278327938
0.64453125,-0.05225404819952928,-0.060518573263834696,-0.03983453567002471,-0.018889293684765107,-0.02598719284208073,-0.026375923667387724,-0.0038153693537879008,-0.006752300052426108
0.6484375,-0.007347634500831646,-0.008509739579665165,-0.005601280772538075,-0.002656093123221126,-0.0036541552006497113,-0.003708816143088711,-0.0005364931832119169,-0.0009494658392839028
0.65234375,0.03167911444279525,0.03668949588586656,0.02414976130182822,0.011451668946449445,0.01575478414395093,0.01599045340583416,0.002313074842774654,0.004093594352383434
0.65625,0.05891505239219441,0.06823308495995661,0.04491238314585644,0.021297177354995256,0.029299872750243594,0.029738156825942497,0.004301727862809912,0.007613039088028017
0.66015625,0.07030138249319862,0.08142028207203111,0.053592454918316434,0.025413214643776882,0.034962564399165785,0.03548555582710833,0.005133109048927054,0.009084387464497468
0.6640625,0.06445677769306712,0.07465129669981252,0.04913697537745065,0.023300453122487852,0.0320559045974278,0.0325354143626555,0.004706361078632426,0.0083291444852307
0.66796875,0.042716255421737515,0.049472276941742166,0.03256364067283357,0.015441480982758549,0.02124381914825335,0.02156159695232418,0.0031189599791758837,0.005519820600596859
0.671875,0.008446654042870705,0.009782580967510057,0.0064390905940570065,0.0030533773287544363,0.004200724212921614,0.004263561059758558,0.0006167389376976473,0.0010914817938356691
0.67578125,-0.03405540738299351,-0.039441626853431444,-0.025961266914009684,-0.0123106742577761,-0.016936571256565003,-0.017189918821713945,-0.002486581607286098,-0.00440066028062347
0.6796875,-0.08066220402724866,-0.09341977857957318,-0.061490766256611096,-0.02915854580010091,-0.04011525334135513,-0.04071531733984557,-0.005889612797460586,-0.010423219620747659
0.68359375,-0.12813606531381083,-0.14840212259059626,-0.09768124442643966,-0.046319851065845796,-0.06372514604890966,-0.06467838176149598,-0.009355953345391299,-0.0165578217803386
0.6875,-0.17428038745492813,-0.201844656544381,-0.1328581902271253,-0.06300054167240887,-0.08667382189742057,-0.08797034212193466,-0.012725215547959579,-0.022520618259136427
0.69140625,-0.21756741830358806,-0.25197800823661964,-0.165856960165911,-0.07864835538384796,-0.10820151175039427,-0.10982004994275485,-0.015885852633346076,-0.028114195416151233
0.6953125,-0.25649458734733344,-0.29706188797717914,-0.19553208119305054,-0.09272011425309756,-0.12756092360177718,-0.12946904348609678,-0.018728147921365235,-0.033144388567052374
0.69921875,-0.28901533255520917,-0.3347261383623845,-0.2203234430453449,-0.1044760296053937,-0.14373426893143915,-0.14588432861728506,-0.021102676939221965,-0.03734673725830362
0.703125,-0.31234560537996003,-0.36174631645735644,-0.23810866878193337,-0.11290967449895106,-0.15533696284819598,-0.15766059391353338,-0.022806153410215302,-0.04036148837371911
0.70703125,-0.32328381394108874,-0.37441455447151384,-0.24644714358146302,-0.1168637311366183,-0.16077680697890173,-0.16318180939833837,-0.02360481587970753,-0.04177493551082989
0.7109375,-0.3189705921613495,-0.3694191264003166,-0.24315906443916901,-0.11530454457897577,-0.15863173530306085,-0.16100464961255057,-0.02328988202293658,-0.04121757513075863
0.71484375,-0.2978319457724865,-0.34493720590944577,-0.2270445662588827,-0.10766314773036356,-0.14811898552125058,-0.15033464251246187,-0.021746428657820616,-0.03848602858624872
0.71875,-0.26036684630525997,-0.30154660635162145,-0.19848400256705645,-0.09411990475882703,-0.12948669336765306,-0.1314236328653351,-0.019010885310422054,-0.03364476697242935
0.72265625,-0.20947764767242916,-0.2426087348794681,-0.15968991817771894,-0.07572398175170747,-0.10417826956654608,-0.10573662478918777,-0.015295171351681347,-0.02706883073244626
0.7265625,-0.1501850022123108,-0.17393833218193322,-0.11448968706417872,-0.05429031091352954,-0.07469061102938213,-0.07580787553251866,-0.010965872654367104,-0.019406998674753595
0.73046875,-0.08876097723486964,-0.10279945428237625,-0.06766465787677589,-0.03208616661254382,-0.044142964839011256,-0.044803282861494154,-0.006480950442977473,-0.01146974781818244
0.734375,-0.03149320093598362,-0.03647418367336286,-0.02400803644775351,-0.011384464038144415,-0.015662326546816985,-0.015896612026722323,-0.002299500367897167,-0.004069570902487385
0.73828125,0.016594050578078168,0.019218573399371053,0.012650049896478777,0.005998576302346237,0.008252619920767756,0.008376067839321877,0.001211627354003042,0.0021442934095006194
0.7421875,0.05272002212564075,0.06105824468249921,0.040189757299913254,0.019057738498418075,0.02621893280263521,0.02661113107649271,0.0038493928045113535,0.006812513664300468
0.74609375,0.07676966617964354,0.08891159808399607,0.05852339057810241,0.02775143492783627,0.03817940097405881,0.038750510356067025,0.005605396147245756,0.009920223753567825
0.75,0.0910580695290264,0.10545986128818186,0.06941579044905666,0.03291654238068986,0.04528536834413899,0.04596277136670324,0.006648674943932065,0.011766579710581482
0.75390625,0.09952722734851704,0.11526849874599066,0.07587203043613044,0.035978054313545726,0.049497280940613564,0.05023768778755766,0.007267056734150401,0.012860969178518644
0.7578125,0.106627467744147,0.12349171640835266,0.0812847247289028,0.038544719416222506,0.053028404778387994,0.0538216333723085,0.007785486921818574,0.01377846725603149
0.76171875,0.11621327189459407,0.13459361980494577,0.0885922091242719,0.042009887124550005,0.05779565270813691,0.05866019492373198,0.008485400826430123,0.015017150190033135
0.765625,0.13074489402242762,0.15142357767672365,0.09967002512212275,0.04726291535916971,0.06502257576812553,0.06599522350825282,0.009546439194707546,0.0168949352286063
0.76953125,0.15094768457402097,0.17482163627846603,0.11507109576314178,0.05456601215314549,0.07506990584715822,0.07619284758675349,0.011021560553103882,0.01950555272856036
0.7734375,0.17589945855434053,0.20371980724576133,0.13409244559170475,0.06358582282928182,0.08747903024186598,0.08878759416575122,0.012843433871978505,0.02272983756768099
0.77734375,0.2033775388099457,0.23554382266866014,0.15503965755669924,0.07351885500384014,0.10114453630194475,0.10265750916005345,0.014849766749591709,0.02628056883224872
0.78125,0.23026437645512488,0.26668308805710694,0.17553614384269167,0.08323817013433654,0.11451600556711128,0.1162290033107638,0.016812929715115388,0.029754904318224362
0.78515625,0.2528955747038708,0.2928936453372444,0.19278844831660535,0.09141911050392082,0.12577103802868805,0.12765239887357893,0.01846536257232856,0.032679320582928995
0.7890625,0.26737680514088424,0.30966526765041635,0.20382786658501573,0.096653927528223,0.13297291445724113,0.13496199358087324,0.019522722993770003,0.03455059527368576
0.79296875,0.27000592695003434,0.31271019906853326,0.20583209447977424,0.09760432817529363,0.13428044098873215,0.13628907424845238,0.01971469032469031,0.034890330624648414
0.796875,0.25792763835852384,0.298721602121077,0.1966245406492817,0.09323815675088554,0.12827361217659927,0.13019240441281,0.018832785997346946,0.03332957021484617
0.80078125,0.23000933424555114,0.2663877296527062,0.175341725139333,0.08314597721437167,0.1143891736887781,0.11610027428332614,0.016794308166367955,0.02972194756978297
0.8046875,0.18771621057567245,0.21740549982496304,0.14310064955225243,0.06785745654269704,0.09335578710079062,0.09475225226651673,0.013706243251476735,0.02425680456497048
0.80859375,0.1356062142576775,0.1570537477846301,0.10337592470932577,0.04902022965325159,0.0674402258482587,0.06844904021363618,0.009901391706534923,0.017523117179507608
0.8125,0.08106598414769906,0.09388741517568633,0.06179857336974237,0.02930450726523759,0.04031605982390829,0.040919132970884675,0.005919094991924112,0.010475395662012943
0.81640625,0.03311243901293892,0.03834951911585449,0.025242419710025388,0.011969801150257808,0.016467611274606497,0.016713944006596648,0.0024177300161909443,0.00427880975095718
0.8203125,0.00042841208358623817,0.0004961699384686824,0.0003265889780834641,0.00015486649462825852,0.00021305962549789115,0.00021624668722353135,3.1280835560698605e-05,5.535967170788858e-05
0.82421875,-0.010853508314312421,-0.012570104956921568,-0.008273894458454834,-0.003923430025309926,-0.0053977107228320165,-0.005478452802520906,-0.000792477250488588,-0.0014024970074189014
0.828125,0.0010850510490101328,0.001256663217930054,0.000827160895333634,0.000392234633661559,0.0005396219582287642,0.0005476939457516039,7.922583422637075e-05,0.00014021096783611853
0.83203125,0.03307410878505834,0.03830512795843788,0.025213200416374093,0.011955945566910486,0.016448549189362893,0.0166945959279019,0.002414931588035074,0.004273856823999722
0.8359375,0.07768980481159815,0.08997726297366171,0.05922483126141742,0.02808405419330029,0.03863700825945671,0.03921496016801029,0.005672580627447132,0.01003912419861308
0.83984375,0.12525399029073014,0.14506422019167076,0.09548417523319586,0.04527801422682387,0.06229181792605232,0.06322361656430076,0.009145516344233329,0.0161853979108173
0.84375,0.16651934231504129,0.19285613461761386,0.12694175666183583,0.06019500631282426,0.08281407559707077,0.084052857118877,0.012158538176265665,0.02151773337288887
0.84765625,0.19521165484093217,0.22608642780141963,0.14881460685955972,0.07056697626239838,0.09708345061198997,0.09853567917161854,0.014253529023733336,0.025225370237080824
0.8515625,0.20963162228326837,0.24278705268443446,0.1598072998376665,0.07577964566962692,0.10425484475717894,0.10581434395362521,0.015306413914117911,0.02708872592904754
0.85546875,0.21281842066400714,0.24647789587106672,0.16223667387293972,0.07693164150168741,0.1058397174347192,0.10742292744225779,0.01553910067286779,0.027500528076984665
0.859375,0.211243047942844,0.24465336423418194,0.1610357287518127,0.07636216281525776,0.10505624459256069,0.10662773775038659,0.015424074462089266,0.027296957583189396
0.86328125,0.212473082683573,0.24607791715425265,0.1619734177893406,0.07680680624844172,0.10566797215005863,0.10724860999289376,0.015513885287532503,0.027455902440465252
0.8671875,0.222575934571978,0.25777865175768966,0.1696750615565179,0.08045888222341091,0.11069236194316545,0.11234816099658929,0.016251552992230245,0.02876139859608884
0.87109375,0.24409976617789653,0.2827066793997801,0.18608319862778444,0.08823951702652266,0.121396681151964,0.12321260101089138,0.017823131415184434,0.031542718659238744
0.875,0.27526979806680174,0.31880659889793606,0.2098448703691247,0.09950716162165918,0.13689827937923837,0.1389460919654084,0.020099035324960823,0.03557053318559156
0.87890625,0.31063203209669155,0.35976174217466905,0.23680236438394786,0.11229023755277012,0.15448476631263475,0.1567956502412926,0.022681035716232145,0.04014006194097419
0.8828125,0.3428988009090972,0.39713182786726975,0.2614001175516023,0.12395433657275134,0.170531805565588,0.17308272504124034,0.025037017792328697,0.04430959066326068
0.88671875,0.3653611315712624,0.423146843786526,0.2785237143143604,0.13207423421590647,0.18170287319208,0.1844208838974737,0.02667712450943327,0.0472121897132638
0.890625,0.3740584304523509,0.4332196965606272,0.2851538738468662,0.13521822950224305,0.18602825946345547,0.18881097219036747,0.027312163197734662,0.048336062263842905
0.89453125,0.36899447763971693,0.4273548483979539,0.28129349516348157,0.1333876582521043,0.18350982600168209,0.18625486575274408,0.02694241629797034,0.047681695036772
0.8984375,0.35402442222221,0.4100170940546377,0.26988143986272917,0.12797613635484595,0.17606485869237076,0.17869852797502972,0.025849365314911665,0.04574725309680616
0.90234375,0.33549073918948125,0.38855210959809483,0.2557527807311999,0.12127640047765453,0.16684761305896245,0.16934340862917452,0.024496113582017642,0.04335231906793524
0.90625,0.32009987194214773,0.3707270082031755,0.24401992959610652,0.11571276559152466,0.15919334828140563,0.16157466120603203,0.023372336954707862,0.041363499292401684
0.91015625,0.3127616423626023,0.3622281781190395,0.23842582663746725,0.11306006797440205,0.15554387289284932,0.15787058771365992,0.022836530888525886,0.0404152515898204
0.9140625,0.3150893235215335,0.36492400568022276,0.24020027922233567,0.11390149978751651,0.15670148911794968,0.1590455127598034,0.023006487381849183,0.04071603498800869
0.91796875,0.32499917779205134,0.37640120353898965,0.24775479801064648,0.11748381467668878,0.16162989879831002,0.1640476483544262,0.023730063247739963,0.041996592869963933
0.921875,0.33746260896805325,0.39083585079424665,0.25725597652126453,0.12198921695016907,0.1678282615102944,0.17033873689342727,0.02464009085656471,0.04360712324569249
0.92578125,0.34609502108651213,0.4008335849903233,0.2638366822793614,0.12510973590451613,0.17212137493061164,0.1746960549553478,0.025270393777532263,0.04472261139198963
0.9296875,0.34504020618442155,0.39961193465387623,0.263032546854447,0.12472843025079783,0.17159678122879995,0.17416363107258803,0.025193374497689547,0.04458630442627509
0.93359375,0.3305843847556389,0.38286975723167416,0.2520125406135776,0.11950280054406903,0.1644075524609434,0.16686685455624684,0.024137872145502115,0.04271831599567122
0.9375,0.3020889494109724,0.3498674914226285,0.23028978546335566,0.109202005660336,0.15023610444586666,0.1524834090105287,0.02205725735393571,0.039036120114133155
0.94140625,0.26208030590169074,0.3035310669474711,0.19979020748905896,0.09473929907244383,0.13033883305979543,0.132288519694157,0.019135994122621014,0.03386617919431956
0.9453125,0.21558153662226687,0.24967800982267363,0.16434306360224582,0.07793047984705481,0.10721387866396981,0.10881765177828129,0.015740852177259512,0.027857579354417794
0.94921875,0.16894101406705886,0.19566081732591556,0.1287878603761783,0.06107041627956278,0.08401843132332942,0.08527522510348717,0.012335358512416406,0.021830661722788136
0.953125,0.12847898744894337,0.14879928755817673,0.09794266730978052,0.04644381590424018,0.0638956905163468,0.0648514770773545,0.009380991983221065,0.01660213300169744
0.95703125,0.09925248178888069,0.11495030349806257,0.0756625908593378,0.03587873820265486,0.0493606435725269,0.05009901116181936,0.007246995892273844,0.01282546691072639
0.9609375,0.08416437680125455,0.09747585494324085,0.0641605595319561,0.030424544661400432,0.041856967669673395,0.04248308727028416,0.00614532646991961,0.010875772282759044
0.96484375,0.08354863467729956,0.09676272583192258,0.06369116078985826,0.030201960043996223,0.041550745066842865,0.042172285219521655,0.006100367766492809,0.010796205707208628
0.96875,0.09527028055344999,0.11033827718165412,0.07262686096964899,0.034439214147141683,0.04738020109584795,0.0480889426057729,0.006956232923016614,0.012310884756061569
0.97265625,0.11529269272614329,0.13352743621908303,0.08789043448587108,0.04167710798697044,0.05733782870720461,0.058195521290826946,0.008418184371805637,0.014898192901569018
0.9765625,0.13858887371043238,0.16050816498136555,0.10564968278004017,0.0500984356222034,0.06892358328514092,0.06995458079472883,0.010119173055045394,0.017908540428379638
0.98046875,0.16021277815525536,0.1855521105653679,0.12213411082484527,0.05791525126142005,0.07967766890715211,0.0808695332921161,0.011698059410036876,0.020702794145677217
0.984375,0.176312042299287,0.20419763302470528,0.1344069602282616,0.06373495864409051,0.08768421366767143,0.08899584003074779,0.012873558219439474,0.02278314958914507
0.98828125,0.18486761632630078,0.2141063646377006,0.14092908884322242,0.06682771669375143,0.09193910699423213,0.09331438377557788,0.01349825051732978,0.02388870612435312
0.9921875,0.18599664031171415,0.2154139480126105,0.14178976925904863,0.06723584533574467,0.09250059918031184,0.09388427457679427,0.013580686797354247,0.024034600087929903
0.99609375,0.18174901583734027,0.21049453380328487,0.13855171232535213,0.06570037669462181,0.09038815562689706,0.09174023318792024,0.01327054377497916,0.02348572003540994
1.0,0.1754491449901252,0.20319826887771342,0.1337491539743496,0.06342303748851918,0.08725507427698176,0.0885602844391542,0.012810553506881206,0.022671645893979075
